# E(eV)   ldos(E)   pdos(E)_1   pdos(E)_2   pdos(E)_3   pdos(E)_4   
  -7.905  0.415E-05  0.816E-06  0.126E-05  0.126E-05  0.816E-06
  -7.880  0.751E-03  0.155E-03  0.221E-03  0.221E-03  0.155E-03
  -7.855  0.243E-01  0.545E-02  0.668E-02  0.668E-02  0.545E-02
  -7.830  0.185E+00  0.459E-01  0.466E-01  0.466E-01  0.459E-01
  -7.805  0.424E+00  0.109E+00  0.102E+00  0.102E+00  0.109E+00
  -7.780  0.309E+00  0.804E-01  0.742E-01  0.742E-01  0.804E-01
  -7.755  0.157E+00  0.393E-01  0.394E-01  0.394E-01  0.393E-01
  -7.730  0.216E+00  0.427E-01  0.651E-01  0.651E-01  0.427E-01
  -7.705  0.203E+00  0.495E-01  0.519E-01  0.519E-01  0.495E-01
  -7.680  0.938E-01  0.272E-01  0.197E-01  0.197E-01  0.272E-01
  -7.655  0.547E-01  0.117E-01  0.157E-01  0.157E-01  0.117E-01
  -7.630  0.129E+00  0.303E-01  0.342E-01  0.342E-01  0.303E-01
  -7.605  0.147E+00  0.353E-01  0.384E-01  0.384E-01  0.353E-01
  -7.580  0.131E+00  0.369E-01  0.283E-01  0.283E-01  0.369E-01
  -7.555  0.575E-01  0.176E-01  0.112E-01  0.112E-01  0.176E-01
  -7.530  0.860E-01  0.232E-01  0.198E-01  0.198E-01  0.232E-01
  -7.505  0.124E+00  0.291E-01  0.331E-01  0.331E-01  0.291E-01
  -7.480  0.140E+00  0.315E-01  0.384E-01  0.384E-01  0.315E-01
  -7.455  0.207E+00  0.576E-01  0.459E-01  0.459E-01  0.576E-01
  -7.430  0.168E+00  0.508E-01  0.330E-01  0.330E-01  0.508E-01
  -7.405  0.875E-01  0.237E-01  0.201E-01  0.201E-01  0.237E-01
  -7.380  0.308E-01  0.855E-02  0.683E-02  0.683E-02  0.855E-02
  -7.355  0.708E-01  0.225E-01  0.129E-01  0.129E-01  0.225E-01
  -7.330  0.136E+00  0.333E-01  0.345E-01  0.345E-01  0.333E-01
  -7.305  0.813E-01  0.137E-01  0.270E-01  0.270E-01  0.137E-01
  -7.280  0.421E-01  0.965E-02  0.114E-01  0.114E-01  0.965E-02
  -7.255  0.825E-01  0.238E-01  0.175E-01  0.175E-01  0.238E-01
  -7.230  0.719E-01  0.130E-01  0.230E-01  0.230E-01  0.130E-01
  -7.205  0.231E-01  0.138E-02  0.102E-01  0.102E-01  0.138E-02
  -7.180  0.817E-02  0.595E-03  0.349E-02  0.349E-02  0.595E-03
  -7.155  0.720E-01  0.126E-01  0.234E-01  0.234E-01  0.126E-01
  -7.130  0.193E+00  0.514E-01  0.451E-01  0.451E-01  0.514E-01
  -7.105  0.116E+00  0.359E-01  0.222E-01  0.222E-01  0.359E-01
  -7.080  0.126E-01  0.409E-02  0.222E-02  0.222E-02  0.409E-02
  -7.055  0.732E-03  0.210E-03  0.156E-03  0.156E-03  0.210E-03
  -7.030  0.204E-01  0.532E-02  0.489E-02  0.489E-02  0.532E-02
  -7.005  0.132E+00  0.330E-01  0.332E-01  0.332E-01  0.330E-01
  -6.980  0.161E+00  0.345E-01  0.458E-01  0.458E-01  0.345E-01
  -6.955  0.726E-01  0.120E-01  0.242E-01  0.242E-01  0.120E-01
  -6.930  0.138E+00  0.308E-01  0.384E-01  0.384E-01  0.308E-01
  -6.905  0.174E+00  0.370E-01  0.500E-01  0.500E-01  0.370E-01
  -6.880  0.135E+00  0.242E-01  0.432E-01  0.432E-01  0.242E-01
  -6.855  0.423E-01  0.101E-01  0.110E-01  0.110E-01  0.101E-01
  -6.830  0.447E-01  0.163E-01  0.608E-02  0.608E-02  0.163E-01
  -6.805  0.444E-01  0.148E-01  0.741E-02  0.741E-02  0.148E-01
  -6.780  0.203E-01  0.481E-02  0.534E-02  0.534E-02  0.481E-02
  -6.755  0.682E-01  0.147E-01  0.195E-01  0.195E-01  0.147E-01
  -6.730  0.831E-01  0.184E-01  0.232E-01  0.232E-01  0.184E-01
  -6.705  0.832E-01  0.265E-01  0.151E-01  0.151E-01  0.265E-01
  -6.680  0.187E+00  0.609E-01  0.325E-01  0.325E-01  0.609E-01
  -6.655  0.822E-01  0.245E-01  0.166E-01  0.166E-01  0.245E-01
  -6.630  0.485E-01  0.663E-02  0.176E-01  0.176E-01  0.663E-02
  -6.605  0.682E-01  0.158E-01  0.183E-01  0.183E-01  0.158E-01
  -6.580  0.680E-01  0.211E-01  0.129E-01  0.129E-01  0.211E-01
  -6.555  0.601E-01  0.178E-01  0.122E-01  0.122E-01  0.178E-01
  -6.530  0.501E-01  0.142E-01  0.108E-01  0.108E-01  0.142E-01
  -6.505  0.799E-01  0.173E-01  0.226E-01  0.226E-01  0.173E-01
  -6.480  0.925E-01  0.198E-01  0.265E-01  0.265E-01  0.198E-01
  -6.455  0.119E+00  0.283E-01  0.313E-01  0.313E-01  0.283E-01
  -6.430  0.127E+00  0.297E-01  0.339E-01  0.339E-01  0.297E-01
  -6.405  0.151E+00  0.339E-01  0.413E-01  0.413E-01  0.339E-01
  -6.380  0.315E-01  0.670E-02  0.906E-02  0.906E-02  0.670E-02
  -6.355  0.135E-02  0.194E-03  0.482E-03  0.482E-03  0.194E-03
  -6.330  0.315E-02  0.106E-02  0.513E-03  0.513E-03  0.106E-02
  -6.305  0.525E-01  0.169E-01  0.941E-02  0.941E-02  0.169E-01
  -6.280  0.160E+00  0.486E-01  0.313E-01  0.313E-01  0.486E-01
  -6.255  0.881E-01  0.261E-01  0.179E-01  0.179E-01  0.261E-01
  -6.230  0.836E-02  0.251E-02  0.167E-02  0.167E-02  0.251E-02
  -6.205  0.340E-02  0.920E-03  0.781E-03  0.781E-03  0.920E-03
  -6.180  0.366E-01  0.593E-02  0.124E-01  0.124E-01  0.593E-02
  -6.155  0.144E+00  0.282E-01  0.436E-01  0.436E-01  0.282E-01
  -6.130  0.144E+00  0.389E-01  0.329E-01  0.329E-01  0.389E-01
  -6.105  0.101E+00  0.344E-01  0.158E-01  0.158E-01  0.344E-01
  -6.080  0.565E-01  0.171E-01  0.111E-01  0.111E-01  0.171E-01
  -6.055  0.868E-01  0.204E-01  0.230E-01  0.230E-01  0.204E-01
  -6.030  0.478E-01  0.119E-01  0.120E-01  0.120E-01  0.119E-01
  -6.005  0.677E-01  0.233E-01  0.105E-01  0.105E-01  0.233E-01
  -5.980  0.103E+00  0.351E-01  0.166E-01  0.166E-01  0.351E-01
  -5.955  0.481E-01  0.155E-01  0.848E-02  0.848E-02  0.155E-01
  -5.930  0.931E-02  0.208E-02  0.258E-02  0.258E-02  0.208E-02
  -5.905  0.176E-01  0.213E-02  0.669E-02  0.669E-02  0.213E-02
  -5.880  0.993E-01  0.263E-01  0.234E-01  0.234E-01  0.263E-01
  -5.855  0.214E+00  0.580E-01  0.489E-01  0.489E-01  0.580E-01
  -5.830  0.129E+00  0.310E-01  0.333E-01  0.333E-01  0.310E-01
  -5.805  0.156E+00  0.265E-01  0.513E-01  0.513E-01  0.265E-01
  -5.780  0.272E+00  0.606E-01  0.751E-01  0.751E-01  0.606E-01
  -5.755  0.106E+00  0.295E-01  0.233E-01  0.233E-01  0.295E-01
  -5.730  0.262E-01  0.498E-02  0.814E-02  0.814E-02  0.498E-02
  -5.705  0.101E+00  0.119E-01  0.388E-01  0.388E-01  0.119E-01
  -5.680  0.902E-01  0.801E-02  0.371E-01  0.371E-01  0.801E-02
  -5.655  0.139E-01  0.794E-03  0.618E-02  0.618E-02  0.794E-03
  -5.630  0.206E-02  0.620E-03  0.409E-03  0.409E-03  0.620E-03
  -5.605  0.329E-01  0.117E-01  0.474E-02  0.474E-02  0.117E-01
  -5.580  0.105E+00  0.365E-01  0.162E-01  0.162E-01  0.365E-01
  -5.555  0.115E+00  0.373E-01  0.203E-01  0.203E-01  0.373E-01
  -5.530  0.488E-01  0.151E-01  0.926E-02  0.926E-02  0.151E-01
  -5.505  0.503E-01  0.866E-02  0.165E-01  0.165E-01  0.866E-02
  -5.480  0.157E+00  0.254E-01  0.529E-01  0.529E-01  0.254E-01
  -5.455  0.841E-01  0.156E-01  0.265E-01  0.265E-01  0.156E-01
  -5.430  0.850E-02  0.207E-02  0.218E-02  0.218E-02  0.207E-02
  -5.405  0.504E-02  0.446E-03  0.208E-02  0.208E-02  0.446E-03
  -5.380  0.628E-01  0.708E-02  0.243E-01  0.243E-01  0.708E-02
  -5.355  0.118E+00  0.185E-01  0.403E-01  0.403E-01  0.185E-01
  -5.330  0.330E-01  0.697E-02  0.951E-02  0.951E-02  0.697E-02
  -5.305  0.817E-02  0.285E-02  0.123E-02  0.123E-02  0.285E-02
  -5.280  0.360E-01  0.132E-01  0.486E-02  0.486E-02  0.132E-01
  -5.255  0.314E-01  0.115E-01  0.426E-02  0.426E-02  0.115E-01
  -5.230  0.233E-01  0.855E-02  0.312E-02  0.312E-02  0.855E-02
  -5.205  0.150E-01  0.551E-02  0.201E-02  0.201E-02  0.551E-02
  -5.180  0.504E-01  0.184E-01  0.681E-02  0.681E-02  0.184E-01
  -5.155  0.742E-01  0.269E-01  0.102E-01  0.102E-01  0.269E-01
  -5.130  0.481E-01  0.150E-01  0.904E-02  0.904E-02  0.150E-01
  -5.105  0.113E+00  0.330E-01  0.235E-01  0.235E-01  0.330E-01
  -5.080  0.883E-01  0.271E-01  0.171E-01  0.171E-01  0.271E-01
  -5.055  0.172E+00  0.527E-01  0.335E-01  0.335E-01  0.527E-01
  -5.030  0.139E+00  0.362E-01  0.334E-01  0.334E-01  0.362E-01
  -5.005  0.243E-01  0.475E-02  0.742E-02  0.742E-02  0.475E-02
  -4.980  0.211E-01  0.213E-02  0.843E-02  0.843E-02  0.213E-02
  -4.955  0.867E-01  0.151E-01  0.283E-01  0.283E-01  0.151E-01
  -4.930  0.945E-01  0.224E-01  0.248E-01  0.248E-01  0.224E-01
  -4.905  0.506E-01  0.108E-01  0.145E-01  0.145E-01  0.108E-01
  -4.880  0.679E-01  0.168E-01  0.171E-01  0.171E-01  0.168E-01
  -4.855  0.209E+00  0.565E-01  0.481E-01  0.481E-01  0.565E-01
  -4.830  0.167E+00  0.406E-01  0.431E-01  0.431E-01  0.406E-01
  -4.805  0.430E-01  0.863E-02  0.129E-01  0.129E-01  0.863E-02
  -4.780  0.997E-01  0.197E-01  0.301E-01  0.301E-01  0.197E-01
  -4.755  0.111E+00  0.261E-01  0.293E-01  0.293E-01  0.261E-01
  -4.730  0.691E-01  0.207E-01  0.139E-01  0.139E-01  0.207E-01
  -4.705  0.232E-01  0.780E-02  0.382E-02  0.382E-02  0.780E-02
  -4.680  0.278E-02  0.862E-03  0.528E-03  0.528E-03  0.862E-03
  -4.655  0.190E-01  0.541E-02  0.410E-02  0.410E-02  0.541E-02
  -4.630  0.816E-01  0.257E-01  0.151E-01  0.151E-01  0.257E-01
  -4.605  0.789E-01  0.263E-01  0.132E-01  0.132E-01  0.263E-01
  -4.580  0.280E-01  0.803E-02  0.599E-02  0.599E-02  0.803E-02
  -4.555  0.816E-01  0.207E-01  0.201E-01  0.201E-01  0.207E-01
  -4.530  0.889E-01  0.184E-01  0.260E-01  0.260E-01  0.184E-01
  -4.505  0.993E-01  0.126E-01  0.371E-01  0.371E-01  0.126E-01
  -4.480  0.513E-01  0.966E-02  0.160E-01  0.160E-01  0.966E-02
  -4.455  0.625E-02  0.165E-02  0.147E-02  0.147E-02  0.165E-02
  -4.430  0.678E-02  0.137E-02  0.202E-02  0.202E-02  0.137E-02
  -4.405  0.522E-01  0.107E-01  0.154E-01  0.154E-01  0.107E-01
  -4.380  0.837E-01  0.215E-01  0.204E-01  0.204E-01  0.215E-01
  -4.355  0.970E-01  0.321E-01  0.164E-01  0.164E-01  0.321E-01
  -4.330  0.113E+00  0.335E-01  0.228E-01  0.228E-01  0.335E-01
  -4.305  0.112E+00  0.296E-01  0.265E-01  0.265E-01  0.296E-01
  -4.280  0.334E-01  0.891E-02  0.777E-02  0.777E-02  0.891E-02
  -4.255  0.733E-01  0.207E-01  0.159E-01  0.159E-01  0.207E-01
  -4.230  0.193E+00  0.477E-01  0.489E-01  0.489E-01  0.477E-01
  -4.205  0.123E+00  0.289E-01  0.324E-01  0.324E-01  0.289E-01
  -4.180  0.126E-01  0.296E-02  0.333E-02  0.333E-02  0.296E-02
  -4.155  0.186E-03  0.445E-04  0.488E-04  0.488E-04  0.445E-04
  -4.130  0.106E-05  0.264E-06  0.264E-06  0.264E-06  0.264E-06
  -4.105  0.176E-03  0.448E-04  0.431E-04  0.431E-04  0.448E-04
  -4.080  0.648E-02  0.166E-02  0.158E-02  0.158E-02  0.166E-02
  -4.055  0.448E-01  0.121E-01  0.104E-01  0.104E-01  0.121E-01
  -4.030  0.128E+00  0.370E-01  0.269E-01  0.269E-01  0.370E-01
  -4.005  0.124E+00  0.359E-01  0.259E-01  0.259E-01  0.359E-01
  -3.980  0.159E+00  0.389E-01  0.406E-01  0.406E-01  0.389E-01
  -3.955  0.261E+00  0.607E-01  0.700E-01  0.700E-01  0.607E-01
  -3.930  0.148E+00  0.411E-01  0.327E-01  0.327E-01  0.411E-01
  -3.905  0.609E-01  0.184E-01  0.121E-01  0.121E-01  0.184E-01
  -3.880  0.780E-01  0.145E-01  0.245E-01  0.245E-01  0.145E-01
  -3.855  0.935E-01  0.156E-01  0.311E-01  0.311E-01  0.156E-01
  -3.830  0.968E-01  0.255E-01  0.229E-01  0.229E-01  0.255E-01
  -3.805  0.109E+00  0.322E-01  0.224E-01  0.224E-01  0.322E-01
  -3.780  0.132E+00  0.247E-01  0.415E-01  0.415E-01  0.247E-01
  -3.755  0.821E-01  0.144E-01  0.266E-01  0.266E-01  0.144E-01
  -3.730  0.112E+00  0.259E-01  0.299E-01  0.299E-01  0.259E-01
  -3.705  0.201E+00  0.489E-01  0.517E-01  0.517E-01  0.489E-01
  -3.680  0.135E+00  0.288E-01  0.388E-01  0.388E-01  0.288E-01
  -3.655  0.148E+00  0.353E-01  0.387E-01  0.387E-01  0.353E-01
  -3.630  0.954E-01  0.179E-01  0.298E-01  0.298E-01  0.179E-01
  -3.605  0.989E-01  0.154E-01  0.340E-01  0.340E-01  0.154E-01
  -3.580  0.485E-01  0.121E-01  0.122E-01  0.122E-01  0.121E-01
  -3.555  0.316E-01  0.108E-01  0.498E-02  0.498E-02  0.108E-01
  -3.530  0.510E-01  0.173E-01  0.822E-02  0.822E-02  0.173E-01
  -3.505  0.103E+00  0.329E-01  0.184E-01  0.184E-01  0.329E-01
  -3.480  0.126E+00  0.391E-01  0.239E-01  0.239E-01  0.391E-01
  -3.455  0.385E-01  0.113E-01  0.794E-02  0.794E-02  0.113E-01
  -3.430  0.605E-01  0.160E-01  0.142E-01  0.142E-01  0.160E-01
  -3.405  0.179E+00  0.424E-01  0.471E-01  0.471E-01  0.424E-01
  -3.380  0.273E+00  0.722E-01  0.644E-01  0.644E-01  0.722E-01
  -3.355  0.237E+00  0.692E-01  0.494E-01  0.494E-01  0.692E-01
  -3.330  0.130E+00  0.340E-01  0.308E-01  0.308E-01  0.340E-01
  -3.305  0.905E-01  0.249E-01  0.203E-01  0.203E-01  0.249E-01
  -3.280  0.101E+00  0.228E-01  0.276E-01  0.276E-01  0.228E-01
  -3.255  0.205E+00  0.359E-01  0.668E-01  0.668E-01  0.359E-01
  -3.230  0.168E+00  0.288E-01  0.552E-01  0.552E-01  0.288E-01
  -3.205  0.631E-01  0.976E-02  0.218E-01  0.218E-01  0.976E-02
  -3.180  0.726E-02  0.121E-02  0.242E-02  0.242E-02  0.121E-02
  -3.155  0.247E-01  0.739E-02  0.499E-02  0.499E-02  0.739E-02
  -3.130  0.961E-01  0.256E-01  0.225E-01  0.225E-01  0.256E-01
  -3.105  0.831E-01  0.201E-01  0.215E-01  0.215E-01  0.201E-01
  -3.080  0.447E-01  0.137E-01  0.866E-02  0.866E-02  0.137E-01
  -3.055  0.705E-01  0.229E-01  0.123E-01  0.123E-01  0.229E-01
  -3.030  0.121E+00  0.377E-01  0.227E-01  0.227E-01  0.377E-01
  -3.005  0.832E-01  0.248E-01  0.168E-01  0.168E-01  0.248E-01
  -2.980  0.398E-01  0.857E-02  0.113E-01  0.113E-01  0.857E-02
  -2.955  0.930E-01  0.160E-01  0.304E-01  0.304E-01  0.160E-01
  -2.930  0.661E-01  0.983E-02  0.232E-01  0.232E-01  0.983E-02
  -2.905  0.473E-01  0.491E-02  0.188E-01  0.188E-01  0.491E-02
  -2.880  0.428E-01  0.942E-02  0.120E-01  0.120E-01  0.942E-02
  -2.855  0.205E+00  0.554E-01  0.473E-01  0.473E-01  0.554E-01
  -2.830  0.240E+00  0.656E-01  0.544E-01  0.544E-01  0.656E-01
  -2.805  0.181E+00  0.504E-01  0.402E-01  0.402E-01  0.504E-01
  -2.780  0.107E+00  0.300E-01  0.234E-01  0.234E-01  0.300E-01
  -2.755  0.141E-01  0.398E-02  0.306E-02  0.306E-02  0.398E-02
  -2.730  0.456E-01  0.127E-01  0.101E-01  0.101E-01  0.127E-01
  -2.705  0.811E-01  0.225E-01  0.180E-01  0.180E-01  0.225E-01
  -2.680  0.492E-01  0.136E-01  0.110E-01  0.110E-01  0.136E-01
  -2.655  0.382E-01  0.107E-01  0.840E-02  0.840E-02  0.107E-01
  -2.630  0.481E-01  0.157E-01  0.841E-02  0.841E-02  0.157E-01
  -2.605  0.673E-01  0.229E-01  0.108E-01  0.108E-01  0.229E-01
  -2.580  0.717E-01  0.251E-01  0.108E-01  0.108E-01  0.251E-01
  -2.555  0.168E+00  0.538E-01  0.303E-01  0.303E-01  0.538E-01
  -2.530  0.159E+00  0.463E-01  0.333E-01  0.333E-01  0.463E-01
  -2.505  0.846E-01  0.258E-01  0.165E-01  0.165E-01  0.258E-01
  -2.480  0.769E-01  0.256E-01  0.128E-01  0.128E-01  0.256E-01
  -2.455  0.804E-01  0.204E-01  0.198E-01  0.198E-01  0.204E-01
  -2.430  0.156E+00  0.367E-01  0.412E-01  0.412E-01  0.367E-01
  -2.405  0.173E+00  0.380E-01  0.482E-01  0.482E-01  0.380E-01
  -2.380  0.155E+00  0.379E-01  0.394E-01  0.394E-01  0.379E-01
  -2.355  0.727E-01  0.169E-01  0.194E-01  0.194E-01  0.169E-01
  -2.330  0.161E+00  0.351E-01  0.455E-01  0.455E-01  0.351E-01
  -2.305  0.131E+00  0.284E-01  0.371E-01  0.371E-01  0.284E-01
  -2.280  0.564E-01  0.112E-01  0.170E-01  0.170E-01  0.112E-01
  -2.255  0.822E-01  0.212E-01  0.199E-01  0.199E-01  0.212E-01
  -2.230  0.123E+00  0.348E-01  0.265E-01  0.265E-01  0.348E-01
  -2.205  0.363E-01  0.107E-01  0.750E-02  0.750E-02  0.107E-01
  -2.180  0.191E-01  0.441E-02  0.515E-02  0.515E-02  0.441E-02
  -2.155  0.151E+00  0.303E-01  0.451E-01  0.451E-01  0.303E-01
  -2.130  0.330E+00  0.595E-01  0.105E+00  0.105E+00  0.595E-01
  -2.105  0.200E+00  0.361E-01  0.640E-01  0.640E-01  0.361E-01
  -2.080  0.296E-01  0.630E-02  0.848E-02  0.848E-02  0.630E-02
  -2.055  0.418E-01  0.120E-01  0.887E-02  0.887E-02  0.120E-01
  -2.030  0.296E-01  0.854E-02  0.627E-02  0.627E-02  0.854E-02
  -2.005  0.289E-02  0.833E-03  0.612E-03  0.612E-03  0.833E-03
  -1.980  0.284E-02  0.766E-03  0.657E-03  0.657E-03  0.766E-03
  -1.955  0.387E-01  0.104E-01  0.894E-02  0.894E-02  0.104E-01
  -1.930  0.723E-01  0.194E-01  0.167E-01  0.167E-01  0.194E-01
  -1.905  0.299E-01  0.713E-02  0.781E-02  0.781E-02  0.713E-02
  -1.880  0.118E+00  0.236E-01  0.354E-01  0.354E-01  0.236E-01
  -1.855  0.189E+00  0.392E-01  0.554E-01  0.554E-01  0.392E-01
  -1.830  0.559E-01  0.121E-01  0.158E-01  0.158E-01  0.121E-01
  -1.805  0.379E-01  0.973E-02  0.922E-02  0.922E-02  0.973E-02
  -1.780  0.443E-01  0.118E-01  0.104E-01  0.104E-01  0.118E-01
  -1.755  0.139E+00  0.378E-01  0.315E-01  0.315E-01  0.378E-01
  -1.730  0.206E+00  0.557E-01  0.471E-01  0.471E-01  0.557E-01
  -1.705  0.216E+00  0.563E-01  0.515E-01  0.515E-01  0.563E-01
  -1.680  0.824E-01  0.211E-01  0.202E-01  0.202E-01  0.211E-01
  -1.655  0.492E-02  0.125E-02  0.122E-02  0.122E-02  0.125E-02
  -1.630  0.493E-04  0.115E-04  0.132E-04  0.132E-04  0.115E-04
  -1.605  0.940E-03  0.123E-03  0.347E-03  0.347E-03  0.123E-03
  -1.580  0.160E-01  0.225E-02  0.576E-02  0.576E-02  0.225E-02
  -1.555  0.630E-01  0.124E-01  0.191E-01  0.191E-01  0.124E-01
  -1.530  0.162E+00  0.421E-01  0.389E-01  0.389E-01  0.421E-01
  -1.505  0.214E+00  0.569E-01  0.502E-01  0.502E-01  0.569E-01
  -1.480  0.108E+00  0.292E-01  0.249E-01  0.249E-01  0.292E-01
  -1.455  0.132E+00  0.374E-01  0.288E-01  0.288E-01  0.374E-01
  -1.430  0.242E+00  0.648E-01  0.562E-01  0.562E-01  0.648E-01
  -1.405  0.285E+00  0.697E-01  0.726E-01  0.726E-01  0.697E-01
  -1.380  0.209E+00  0.466E-01  0.578E-01  0.578E-01  0.466E-01
  -1.355  0.203E+00  0.458E-01  0.558E-01  0.558E-01  0.458E-01
  -1.330  0.224E+00  0.581E-01  0.537E-01  0.537E-01  0.581E-01
  -1.305  0.172E+00  0.471E-01  0.389E-01  0.389E-01  0.471E-01
  -1.280  0.143E+00  0.395E-01  0.320E-01  0.320E-01  0.395E-01
  -1.255  0.130E+00  0.366E-01  0.284E-01  0.284E-01  0.366E-01
  -1.230  0.121E+00  0.318E-01  0.287E-01  0.287E-01  0.318E-01
  -1.205  0.109E+00  0.265E-01  0.280E-01  0.280E-01  0.265E-01
  -1.180  0.203E-01  0.452E-02  0.562E-02  0.562E-02  0.452E-02
  -1.155  0.166E-02  0.471E-03  0.359E-03  0.359E-03  0.471E-03
  -1.130  0.215E-01  0.714E-02  0.361E-02  0.361E-02  0.714E-02
  -1.105  0.620E-01  0.206E-01  0.104E-01  0.104E-01  0.206E-01
  -1.080  0.302E-01  0.966E-02  0.545E-02  0.545E-02  0.966E-02
  -1.055  0.645E-01  0.174E-01  0.148E-01  0.148E-01  0.174E-01
  -1.030  0.934E-01  0.253E-01  0.214E-01  0.214E-01  0.253E-01
  -1.005  0.923E-01  0.273E-01  0.188E-01  0.188E-01  0.273E-01
  -0.980  0.311E+00  0.911E-01  0.646E-01  0.646E-01  0.911E-01
  -0.955  0.404E+00  0.111E+00  0.910E-01  0.910E-01  0.111E+00
  -0.930  0.260E+00  0.650E-01  0.652E-01  0.652E-01  0.650E-01
  -0.905  0.168E+00  0.419E-01  0.421E-01  0.421E-01  0.419E-01
  -0.880  0.125E+00  0.277E-01  0.350E-01  0.350E-01  0.277E-01
  -0.855  0.197E+00  0.431E-01  0.553E-01  0.553E-01  0.431E-01
  -0.830  0.186E+00  0.447E-01  0.484E-01  0.484E-01  0.447E-01
  -0.805  0.265E+00  0.658E-01  0.667E-01  0.667E-01  0.658E-01
  -0.780  0.241E+00  0.567E-01  0.636E-01  0.636E-01  0.567E-01
  -0.755  0.164E+00  0.340E-01  0.480E-01  0.480E-01  0.340E-01
  -0.730  0.159E+00  0.384E-01  0.413E-01  0.413E-01  0.384E-01
  -0.705  0.512E-01  0.145E-01  0.111E-01  0.111E-01  0.145E-01
  -0.680  0.116E+00  0.290E-01  0.292E-01  0.292E-01  0.290E-01
  -0.655  0.257E+00  0.661E-01  0.624E-01  0.624E-01  0.661E-01
  -0.630  0.203E+00  0.559E-01  0.455E-01  0.455E-01  0.559E-01
  -0.605  0.162E+00  0.357E-01  0.452E-01  0.452E-01  0.357E-01
  -0.580  0.138E+00  0.266E-01  0.426E-01  0.426E-01  0.266E-01
  -0.555  0.707E-01  0.178E-01  0.176E-01  0.176E-01  0.178E-01
  -0.530  0.152E+00  0.406E-01  0.352E-01  0.352E-01  0.406E-01
  -0.505  0.275E+00  0.660E-01  0.715E-01  0.715E-01  0.660E-01
  -0.480  0.303E+00  0.727E-01  0.788E-01  0.788E-01  0.727E-01
  -0.455  0.194E+00  0.453E-01  0.518E-01  0.518E-01  0.453E-01
  -0.430  0.259E+00  0.560E-01  0.733E-01  0.733E-01  0.560E-01
  -0.405  0.319E+00  0.702E-01  0.894E-01  0.894E-01  0.702E-01
  -0.380  0.105E+00  0.239E-01  0.287E-01  0.287E-01  0.239E-01
  -0.355  0.690E-01  0.134E-01  0.211E-01  0.211E-01  0.134E-01
  -0.330  0.229E+00  0.595E-01  0.550E-01  0.550E-01  0.595E-01
  -0.305  0.258E+00  0.689E-01  0.602E-01  0.602E-01  0.689E-01
  -0.280  0.761E-01  0.199E-01  0.182E-01  0.182E-01  0.199E-01
  -0.255  0.746E-01  0.218E-01  0.155E-01  0.155E-01  0.218E-01
  -0.230  0.174E+00  0.494E-01  0.375E-01  0.375E-01  0.494E-01
  -0.205  0.219E+00  0.533E-01  0.562E-01  0.562E-01  0.533E-01
  -0.180  0.164E+00  0.350E-01  0.470E-01  0.470E-01  0.350E-01
  -0.155  0.187E+00  0.429E-01  0.504E-01  0.504E-01  0.429E-01
  -0.130  0.213E+00  0.496E-01  0.570E-01  0.570E-01  0.496E-01
  -0.105  0.183E+00  0.448E-01  0.467E-01  0.467E-01  0.448E-01
  -0.080  0.678E-01  0.201E-01  0.138E-01  0.138E-01  0.201E-01
  -0.055  0.263E-01  0.466E-02  0.850E-02  0.850E-02  0.466E-02
  -0.030  0.882E-01  0.161E-01  0.281E-01  0.281E-01  0.161E-01
  -0.005  0.152E+00  0.409E-01  0.353E-01  0.353E-01  0.409E-01
   0.020  0.184E+00  0.521E-01  0.398E-01  0.398E-01  0.521E-01
   0.045  0.274E+00  0.683E-01  0.688E-01  0.688E-01  0.683E-01
   0.070  0.251E+00  0.652E-01  0.601E-01  0.601E-01  0.652E-01
   0.095  0.377E+00  0.105E+00  0.833E-01  0.833E-01  0.105E+00
   0.120  0.221E+00  0.588E-01  0.516E-01  0.516E-01  0.588E-01
   0.145  0.158E+00  0.414E-01  0.377E-01  0.377E-01  0.414E-01
   0.170  0.222E+00  0.587E-01  0.525E-01  0.525E-01  0.587E-01
   0.195  0.256E+00  0.710E-01  0.570E-01  0.570E-01  0.710E-01
   0.220  0.159E+00  0.418E-01  0.379E-01  0.379E-01  0.418E-01
   0.245  0.247E+00  0.562E-01  0.674E-01  0.674E-01  0.562E-01
   0.270  0.330E+00  0.765E-01  0.883E-01  0.883E-01  0.765E-01
   0.295  0.105E+00  0.246E-01  0.279E-01  0.279E-01  0.246E-01
   0.320  0.863E-02  0.214E-02  0.217E-02  0.217E-02  0.214E-02
   0.345  0.481E-01  0.147E-01  0.934E-02  0.934E-02  0.147E-01
   0.370  0.214E+00  0.639E-01  0.430E-01  0.430E-01  0.639E-01
   0.395  0.168E+00  0.480E-01  0.362E-01  0.362E-01  0.480E-01
   0.420  0.191E+00  0.433E-01  0.522E-01  0.522E-01  0.433E-01
   0.445  0.394E+00  0.800E-01  0.117E+00  0.117E+00  0.800E-01
   0.470  0.301E+00  0.618E-01  0.887E-01  0.887E-01  0.618E-01
   0.495  0.149E+00  0.369E-01  0.375E-01  0.375E-01  0.369E-01
   0.520  0.221E+00  0.611E-01  0.497E-01  0.497E-01  0.611E-01
   0.545  0.246E+00  0.659E-01  0.573E-01  0.573E-01  0.659E-01
   0.570  0.110E+00  0.269E-01  0.280E-01  0.280E-01  0.269E-01
   0.595  0.292E-01  0.823E-02  0.637E-02  0.637E-02  0.823E-02
   0.620  0.128E+00  0.395E-01  0.246E-01  0.246E-01  0.395E-01
   0.645  0.296E+00  0.861E-01  0.620E-01  0.620E-01  0.861E-01
   0.670  0.381E+00  0.984E-01  0.921E-01  0.921E-01  0.984E-01
   0.695  0.331E+00  0.813E-01  0.845E-01  0.845E-01  0.813E-01
   0.720  0.395E+00  0.107E+00  0.904E-01  0.904E-01  0.107E+00
   0.745  0.319E+00  0.820E-01  0.778E-01  0.778E-01  0.820E-01
   0.770  0.229E+00  0.527E-01  0.617E-01  0.617E-01  0.527E-01
   0.795  0.335E+00  0.845E-01  0.828E-01  0.828E-01  0.845E-01
   0.820  0.310E+00  0.822E-01  0.726E-01  0.726E-01  0.822E-01
   0.845  0.128E+00  0.376E-01  0.263E-01  0.263E-01  0.376E-01
   0.870  0.717E-01  0.158E-01  0.201E-01  0.201E-01  0.158E-01
   0.895  0.709E-01  0.143E-01  0.212E-01  0.212E-01  0.143E-01
   0.920  0.154E+00  0.325E-01  0.445E-01  0.445E-01  0.325E-01
   0.945  0.476E+00  0.103E+00  0.135E+00  0.135E+00  0.103E+00
   0.970  0.465E+00  0.111E+00  0.122E+00  0.122E+00  0.111E+00
   0.995  0.432E+00  0.121E+00  0.952E-01  0.952E-01  0.121E+00
   1.020  0.471E+00  0.114E+00  0.122E+00  0.122E+00  0.114E+00
   1.045  0.349E+00  0.811E-01  0.936E-01  0.936E-01  0.811E-01
   1.070  0.182E+00  0.478E-01  0.432E-01  0.432E-01  0.478E-01
   1.095  0.169E+00  0.369E-01  0.477E-01  0.477E-01  0.369E-01
   1.120  0.210E+00  0.489E-01  0.563E-01  0.563E-01  0.489E-01
   1.145  0.263E+00  0.688E-01  0.625E-01  0.625E-01  0.688E-01
   1.170  0.466E+00  0.106E+00  0.127E+00  0.127E+00  0.106E+00
   1.195  0.378E+00  0.768E-01  0.112E+00  0.112E+00  0.768E-01
   1.220  0.293E+00  0.663E-01  0.803E-01  0.803E-01  0.663E-01
   1.245  0.385E+00  0.108E+00  0.842E-01  0.842E-01  0.108E+00
   1.270  0.654E+00  0.180E+00  0.147E+00  0.147E+00  0.180E+00
   1.295  0.689E+00  0.180E+00  0.165E+00  0.165E+00  0.180E+00
   1.320  0.368E+00  0.102E+00  0.815E-01  0.815E-01  0.102E+00
   1.345  0.232E+00  0.626E-01  0.534E-01  0.534E-01  0.626E-01
   1.370  0.199E+00  0.459E-01  0.534E-01  0.534E-01  0.459E-01
   1.395  0.208E+00  0.418E-01  0.625E-01  0.625E-01  0.418E-01
   1.420  0.198E+00  0.422E-01  0.568E-01  0.568E-01  0.422E-01
   1.445  0.286E+00  0.691E-01  0.742E-01  0.742E-01  0.691E-01
   1.470  0.395E+00  0.899E-01  0.108E+00  0.108E+00  0.899E-01
   1.495  0.205E+00  0.531E-01  0.492E-01  0.492E-01  0.531E-01
   1.520  0.131E+00  0.365E-01  0.291E-01  0.291E-01  0.365E-01
   1.545  0.191E+00  0.434E-01  0.521E-01  0.521E-01  0.434E-01
   1.570  0.292E+00  0.749E-01  0.712E-01  0.712E-01  0.749E-01
   1.595  0.253E+00  0.611E-01  0.653E-01  0.653E-01  0.611E-01
   1.620  0.230E+00  0.569E-01  0.579E-01  0.579E-01  0.569E-01
   1.645  0.414E+00  0.103E+00  0.104E+00  0.104E+00  0.103E+00
   1.670  0.404E+00  0.108E+00  0.936E-01  0.936E-01  0.108E+00
   1.695  0.496E+00  0.128E+00  0.120E+00  0.120E+00  0.128E+00
   1.720  0.323E+00  0.772E-01  0.843E-01  0.843E-01  0.772E-01
   1.745  0.122E+00  0.319E-01  0.292E-01  0.292E-01  0.319E-01
   1.770  0.180E+00  0.566E-01  0.333E-01  0.333E-01  0.566E-01
   1.795  0.313E+00  0.864E-01  0.702E-01  0.702E-01  0.864E-01
   1.820  0.400E+00  0.102E+00  0.983E-01  0.983E-01  0.102E+00
   1.845  0.336E+00  0.102E+00  0.656E-01  0.656E-01  0.102E+00
   1.870  0.180E+00  0.579E-01  0.319E-01  0.319E-01  0.579E-01
   1.895  0.296E+00  0.847E-01  0.632E-01  0.632E-01  0.847E-01
   1.920  0.403E+00  0.112E+00  0.894E-01  0.894E-01  0.112E+00
   1.945  0.488E+00  0.121E+00  0.123E+00  0.123E+00  0.121E+00
   1.970  0.390E+00  0.870E-01  0.108E+00  0.108E+00  0.870E-01
   1.995  0.250E+00  0.471E-01  0.779E-01  0.779E-01  0.471E-01
   2.020  0.303E+00  0.543E-01  0.974E-01  0.974E-01  0.543E-01
   2.045  0.438E+00  0.941E-01  0.125E+00  0.125E+00  0.941E-01
   2.070  0.443E+00  0.105E+00  0.116E+00  0.116E+00  0.105E+00
   2.095  0.126E+00  0.329E-01  0.299E-01  0.299E-01  0.329E-01
   2.120  0.126E-01  0.342E-02  0.291E-02  0.291E-02  0.342E-02
   2.145  0.461E-01  0.922E-02  0.138E-01  0.138E-01  0.922E-02
   2.170  0.243E+00  0.550E-01  0.666E-01  0.666E-01  0.550E-01
   2.195  0.386E+00  0.964E-01  0.967E-01  0.967E-01  0.964E-01
   2.220  0.489E+00  0.112E+00  0.132E+00  0.132E+00  0.112E+00
   2.245  0.610E+00  0.134E+00  0.171E+00  0.171E+00  0.134E+00
   2.270  0.374E+00  0.943E-01  0.927E-01  0.927E-01  0.943E-01
   2.295  0.344E+00  0.886E-01  0.832E-01  0.832E-01  0.886E-01
   2.320  0.448E+00  0.117E+00  0.107E+00  0.107E+00  0.117E+00
   2.345  0.323E+00  0.911E-01  0.707E-01  0.707E-01  0.911E-01
   2.370  0.204E+00  0.631E-01  0.390E-01  0.390E-01  0.631E-01
   2.395  0.198E+00  0.534E-01  0.457E-01  0.457E-01  0.534E-01
   2.420  0.428E+00  0.111E+00  0.103E+00  0.103E+00  0.111E+00
   2.445  0.417E+00  0.112E+00  0.970E-01  0.970E-01  0.112E+00
   2.470  0.503E+00  0.131E+00  0.120E+00  0.120E+00  0.131E+00
   2.495  0.534E+00  0.138E+00  0.129E+00  0.129E+00  0.138E+00
   2.520  0.337E+00  0.899E-01  0.788E-01  0.788E-01  0.899E-01
   2.545  0.334E+00  0.758E-01  0.912E-01  0.912E-01  0.758E-01
   2.570  0.211E+00  0.603E-01  0.453E-01  0.453E-01  0.603E-01
   2.595  0.183E+00  0.582E-01  0.336E-01  0.336E-01  0.582E-01
   2.620  0.432E-01  0.122E-01  0.939E-02  0.939E-02  0.122E-01
   2.645  0.847E-01  0.154E-01  0.269E-01  0.269E-01  0.154E-01
   2.670  0.333E+00  0.667E-01  0.100E+00  0.100E+00  0.667E-01
   2.695  0.358E+00  0.765E-01  0.103E+00  0.103E+00  0.765E-01
   2.720  0.272E+00  0.639E-01  0.720E-01  0.720E-01  0.639E-01
   2.745  0.280E+00  0.660E-01  0.742E-01  0.742E-01  0.660E-01
   2.770  0.125E+00  0.230E-01  0.397E-01  0.397E-01  0.230E-01
   2.795  0.135E+00  0.326E-01  0.349E-01  0.349E-01  0.326E-01
   2.820  0.286E+00  0.775E-01  0.652E-01  0.652E-01  0.775E-01
   2.845  0.297E+00  0.870E-01  0.613E-01  0.613E-01  0.870E-01
   2.870  0.290E+00  0.819E-01  0.632E-01  0.632E-01  0.819E-01
   2.895  0.285E+00  0.648E-01  0.776E-01  0.776E-01  0.648E-01
   2.920  0.296E+00  0.821E-01  0.658E-01  0.658E-01  0.821E-01
   2.945  0.331E+00  0.874E-01  0.781E-01  0.781E-01  0.874E-01
   2.970  0.305E+00  0.566E-01  0.961E-01  0.961E-01  0.566E-01
   2.995  0.274E+00  0.664E-01  0.706E-01  0.706E-01  0.664E-01
   3.020  0.127E+00  0.370E-01  0.264E-01  0.264E-01  0.370E-01
   3.045  0.779E-01  0.183E-01  0.206E-01  0.206E-01  0.183E-01
   3.070  0.303E+00  0.728E-01  0.788E-01  0.788E-01  0.728E-01
   3.095  0.367E+00  0.893E-01  0.941E-01  0.941E-01  0.893E-01
   3.120  0.515E+00  0.124E+00  0.133E+00  0.133E+00  0.124E+00
   3.145  0.575E+00  0.151E+00  0.137E+00  0.137E+00  0.151E+00
   3.170  0.451E+00  0.126E+00  0.994E-01  0.994E-01  0.126E+00
   3.195  0.254E+00  0.621E-01  0.647E-01  0.647E-01  0.621E-01
   3.220  0.435E+00  0.919E-01  0.126E+00  0.126E+00  0.919E-01
   3.245  0.534E+00  0.131E+00  0.136E+00  0.136E+00  0.131E+00
   3.270  0.651E+00  0.169E+00  0.156E+00  0.156E+00  0.169E+00
   3.295  0.491E+00  0.126E+00  0.119E+00  0.119E+00  0.126E+00
   3.320  0.141E+00  0.361E-01  0.345E-01  0.345E-01  0.361E-01
   3.345  0.845E-01  0.179E-01  0.243E-01  0.243E-01  0.179E-01
   3.370  0.904E-01  0.196E-01  0.256E-01  0.256E-01  0.196E-01
   3.395  0.568E-01  0.193E-01  0.908E-02  0.908E-02  0.193E-01
   3.420  0.700E-01  0.267E-01  0.834E-02  0.834E-02  0.267E-01
   3.445  0.182E-01  0.650E-02  0.260E-02  0.260E-02  0.650E-02
   3.470  0.385E-01  0.790E-02  0.113E-01  0.113E-01  0.790E-02
   3.495  0.131E+00  0.262E-01  0.393E-01  0.393E-01  0.262E-01
   3.520  0.311E+00  0.802E-01  0.754E-01  0.754E-01  0.802E-01
   3.545  0.328E+00  0.934E-01  0.705E-01  0.705E-01  0.934E-01
   3.570  0.101E+00  0.301E-01  0.204E-01  0.204E-01  0.301E-01
   3.595  0.522E-01  0.145E-01  0.116E-01  0.116E-01  0.145E-01
   3.620  0.822E-01  0.136E-01  0.275E-01  0.275E-01  0.136E-01
   3.645  0.379E-01  0.533E-02  0.136E-01  0.136E-01  0.533E-02
   3.670  0.365E-01  0.656E-02  0.117E-01  0.117E-01  0.656E-02
   3.695  0.229E+00  0.433E-01  0.714E-01  0.714E-01  0.433E-01
   3.720  0.325E+00  0.749E-01  0.877E-01  0.877E-01  0.749E-01
   3.745  0.236E+00  0.667E-01  0.515E-01  0.515E-01  0.667E-01
   3.770  0.213E+00  0.517E-01  0.548E-01  0.548E-01  0.517E-01
   3.795  0.259E+00  0.746E-01  0.551E-01  0.551E-01  0.746E-01
   3.820  0.156E+00  0.452E-01  0.326E-01  0.326E-01  0.452E-01
   3.845  0.138E+00  0.320E-01  0.369E-01  0.369E-01  0.320E-01
   3.870  0.100E+00  0.209E-01  0.291E-01  0.291E-01  0.209E-01
   3.895  0.168E+00  0.377E-01  0.461E-01  0.461E-01  0.377E-01
   3.920  0.147E+00  0.329E-01  0.405E-01  0.405E-01  0.329E-01
   3.945  0.102E+00  0.313E-01  0.198E-01  0.198E-01  0.313E-01
   3.970  0.140E+00  0.375E-01  0.324E-01  0.324E-01  0.375E-01
   3.995  0.124E+00  0.353E-01  0.266E-01  0.266E-01  0.353E-01
   4.020  0.939E-01  0.220E-01  0.250E-01  0.250E-01  0.220E-01
   4.045  0.155E+00  0.302E-01  0.474E-01  0.474E-01  0.302E-01
   4.070  0.495E-01  0.958E-02  0.152E-01  0.152E-01  0.958E-02
   4.095  0.216E-02  0.419E-03  0.660E-03  0.660E-03  0.419E-03
   4.120  0.114E-02  0.324E-03  0.244E-03  0.244E-03  0.324E-03
   4.145  0.352E-01  0.100E-01  0.756E-02  0.756E-02  0.100E-01
   4.170  0.155E+00  0.429E-01  0.346E-01  0.346E-01  0.429E-01
   4.195  0.126E+00  0.269E-01  0.360E-01  0.360E-01  0.269E-01
   4.220  0.606E-01  0.791E-02  0.224E-01  0.224E-01  0.791E-02
   4.245  0.128E+00  0.288E-01  0.352E-01  0.352E-01  0.288E-01
   4.270  0.128E+00  0.314E-01  0.327E-01  0.327E-01  0.314E-01
   4.295  0.886E-01  0.297E-01  0.146E-01  0.146E-01  0.297E-01
   4.320  0.101E+00  0.350E-01  0.155E-01  0.155E-01  0.350E-01
   4.345  0.104E+00  0.385E-01  0.138E-01  0.138E-01  0.385E-01
   4.370  0.341E-01  0.124E-01  0.461E-02  0.461E-02  0.124E-01
   4.395  0.230E-02  0.745E-03  0.405E-03  0.405E-03  0.745E-03
   4.420  0.215E-01  0.503E-02  0.572E-02  0.572E-02  0.503E-02
   4.445  0.125E+00  0.299E-01  0.324E-01  0.324E-01  0.299E-01
   4.470  0.159E+00  0.337E-01  0.456E-01  0.456E-01  0.337E-01
   4.495  0.729E-01  0.137E-01  0.227E-01  0.227E-01  0.137E-01
   4.520  0.653E-01  0.171E-01  0.155E-01  0.155E-01  0.171E-01
   4.545  0.765E-01  0.150E-01  0.232E-01  0.232E-01  0.150E-01
   4.570  0.211E-01  0.319E-02  0.735E-02  0.735E-02  0.319E-02
   4.595  0.963E-03  0.132E-03  0.349E-03  0.349E-03  0.132E-03
   4.620  0.407E-04  0.763E-05  0.127E-04  0.127E-04  0.763E-05
   4.645  0.325E-02  0.640E-03  0.986E-03  0.986E-03  0.640E-03
   4.670  0.416E-01  0.817E-02  0.126E-01  0.126E-01  0.817E-02
   4.695  0.722E-01  0.141E-01  0.219E-01  0.219E-01  0.141E-01
   4.720  0.197E-01  0.433E-02  0.551E-02  0.551E-02  0.433E-02
   4.745  0.268E-01  0.982E-02  0.356E-02  0.356E-02  0.982E-02
   4.770  0.336E-01  0.125E-01  0.436E-02  0.436E-02  0.125E-01
   4.795  0.584E-02  0.216E-02  0.758E-03  0.758E-03  0.216E-02
   4.820  0.926E-03  0.247E-03  0.215E-03  0.215E-03  0.247E-03
   4.845  0.127E-01  0.317E-02  0.318E-02  0.318E-02  0.317E-02
   4.870  0.277E-01  0.692E-02  0.693E-02  0.693E-02  0.692E-02
   4.895  0.818E-02  0.205E-02  0.204E-02  0.204E-02  0.205E-02
   4.920  0.327E-03  0.818E-04  0.814E-04  0.814E-04  0.818E-04
   4.945  0.176E-05  0.443E-06  0.440E-06  0.440E-06  0.443E-06
   4.970  0.129E-08  0.324E-09  0.321E-09  0.321E-09  0.324E-09
   4.995  0.128E-12  0.321E-13  0.318E-13  0.318E-13  0.321E-13
   5.020  0.171E-17  0.431E-18  0.425E-18  0.425E-18  0.431E-18
   5.045  0.000E+00  0.000E+00  0.000E+00  0.000E+00  0.000E+00
   5.070  0.000E+00  0.000E+00  0.000E+00  0.000E+00  0.000E+00
   5.095  0.000E+00  0.000E+00  0.000E+00  0.000E+00  0.000E+00
   5.120  0.000E+00  0.000E+00  0.000E+00  0.000E+00  0.000E+00
   5.145  0.000E+00  0.000E+00  0.000E+00  0.000E+00  0.000E+00
   5.170  0.000E+00  0.000E+00  0.000E+00  0.000E+00  0.000E+00
   5.195  0.000E+00  0.000E+00  0.000E+00  0.000E+00  0.000E+00
   5.220  0.000E+00  0.000E+00  0.000E+00  0.000E+00  0.000E+00
   5.245  0.000E+00  0.000E+00  0.000E+00  0.000E+00  0.000E+00
   5.270  0.000E+00  0.000E+00  0.000E+00  0.000E+00  0.000E+00
   5.295  0.000E+00  0.000E+00  0.000E+00  0.000E+00  0.000E+00
   5.320  0.000E+00  0.000E+00  0.000E+00  0.000E+00  0.000E+00
   5.345  0.000E+00  0.000E+00  0.000E+00  0.000E+00  0.000E+00
   5.370  0.000E+00  0.000E+00  0.000E+00  0.000E+00  0.000E+00
   5.395  0.000E+00  0.000E+00  0.000E+00  0.000E+00  0.000E+00
   5.420  0.000E+00  0.000E+00  0.000E+00  0.000E+00  0.000E+00
   5.445  0.000E+00  0.000E+00  0.000E+00  0.000E+00  0.000E+00
   5.470  0.000E+00  0.000E+00  0.000E+00  0.000E+00  0.000E+00
   5.495  0.000E+00  0.000E+00  0.000E+00  0.000E+00  0.000E+00
   5.520  0.000E+00  0.000E+00  0.000E+00  0.000E+00  0.000E+00
   5.545  0.000E+00  0.000E+00  0.000E+00  0.000E+00  0.000E+00
   5.570  0.000E+00  0.000E+00  0.000E+00  0.000E+00  0.000E+00
   5.595  0.000E+00  0.000E+00  0.000E+00  0.000E+00  0.000E+00
   5.620  0.000E+00  0.000E+00  0.000E+00  0.000E+00  0.000E+00
   5.645  0.000E+00  0.000E+00  0.000E+00  0.000E+00  0.000E+00
   5.670  0.202E-19  0.758E-20  0.253E-20  0.253E-20  0.758E-20
   5.695  0.286E-14  0.107E-14  0.358E-15  0.358E-15  0.107E-14
   5.720  0.548E-10  0.206E-10  0.685E-11  0.685E-11  0.206E-10
   5.745  0.142E-06  0.533E-07  0.178E-07  0.178E-07  0.533E-07
   5.770  0.499E-04  0.187E-04  0.625E-05  0.625E-05  0.187E-04
   5.795  0.238E-02  0.889E-03  0.304E-03  0.304E-03  0.889E-03
   5.820  0.161E-01  0.571E-02  0.236E-02  0.236E-02  0.571E-02
   5.845  0.213E-01  0.499E-02  0.565E-02  0.565E-02  0.499E-02
   5.870  0.179E-01  0.151E-02  0.742E-02  0.742E-02  0.151E-02
   5.895  0.239E-01  0.567E-02  0.629E-02  0.629E-02  0.567E-02
   5.920  0.210E-01  0.732E-02  0.315E-02  0.315E-02  0.732E-02
   5.945  0.215E-01  0.803E-02  0.270E-02  0.270E-02  0.803E-02
   5.970  0.717E-02  0.269E-02  0.896E-03  0.896E-03  0.269E-02
   5.995  0.344E-03  0.129E-03  0.430E-04  0.430E-04  0.129E-03
   6.020  0.224E-05  0.840E-06  0.280E-06  0.280E-06  0.840E-06
   6.045  0.197E-08  0.740E-09  0.247E-09  0.247E-09  0.740E-09
   6.070  0.855E-08  0.217E-08  0.211E-08  0.211E-08  0.217E-08
   6.095  0.699E-05  0.177E-05  0.173E-05  0.173E-05  0.177E-05
   6.120  0.773E-03  0.195E-03  0.191E-03  0.191E-03  0.195E-03
   6.145  0.116E-01  0.292E-02  0.287E-02  0.287E-02  0.292E-02
   6.170  0.235E-01  0.593E-02  0.584E-02  0.584E-02  0.593E-02
   6.195  0.969E-02  0.244E-02  0.240E-02  0.240E-02  0.244E-02
   6.220  0.291E-01  0.757E-02  0.700E-02  0.700E-02  0.757E-02
   6.245  0.660E-01  0.173E-01  0.157E-01  0.157E-01  0.173E-01
   6.270  0.869E-01  0.163E-01  0.271E-01  0.271E-01  0.163E-01
   6.295  0.837E-01  0.129E-01  0.289E-01  0.289E-01  0.129E-01
   6.320  0.112E+00  0.151E-01  0.408E-01  0.408E-01  0.151E-01
   6.345  0.606E-01  0.542E-02  0.249E-01  0.249E-01  0.542E-02
   6.370  0.521E-01  0.168E-01  0.925E-02  0.925E-02  0.168E-01
   6.395  0.965E-01  0.343E-01  0.139E-01  0.139E-01  0.343E-01
   6.420  0.878E-01  0.312E-01  0.127E-01  0.127E-01  0.312E-01
   6.445  0.336E-01  0.119E-01  0.490E-02  0.490E-02  0.119E-01
   6.470  0.288E-02  0.789E-03  0.653E-03  0.653E-03  0.789E-03
   6.495  0.194E-01  0.187E-02  0.783E-02  0.783E-02  0.187E-02
   6.520  0.112E+00  0.218E-01  0.340E-01  0.340E-01  0.218E-01
   6.545  0.193E+00  0.525E-01  0.440E-01  0.440E-01  0.525E-01
   6.570  0.902E-01  0.275E-01  0.176E-01  0.176E-01  0.275E-01
   6.595  0.442E-01  0.146E-01  0.750E-02  0.750E-02  0.146E-01
   6.620  0.166E-01  0.552E-02  0.277E-02  0.277E-02  0.552E-02
   6.645  0.262E-01  0.939E-02  0.372E-02  0.372E-02  0.939E-02
   6.670  0.121E+00  0.404E-01  0.200E-01  0.200E-01  0.404E-01
   6.695  0.144E+00  0.445E-01  0.278E-01  0.278E-01  0.445E-01
   6.720  0.489E-01  0.154E-01  0.905E-02  0.905E-02  0.154E-01
   6.745  0.943E-01  0.344E-01  0.128E-01  0.128E-01  0.344E-01
   6.770  0.139E+00  0.464E-01  0.231E-01  0.231E-01  0.464E-01
   6.795  0.112E+00  0.213E-01  0.346E-01  0.346E-01  0.213E-01
   6.820  0.709E-01  0.401E-02  0.315E-01  0.315E-01  0.401E-02
   6.845  0.172E-01  0.656E-03  0.794E-02  0.794E-02  0.656E-03
   6.870  0.319E-01  0.173E-02  0.142E-01  0.142E-01  0.173E-02
   6.895  0.877E-01  0.687E-02  0.370E-01  0.370E-01  0.687E-02
   6.920  0.123E+00  0.254E-01  0.362E-01  0.362E-01  0.254E-01
   6.945  0.127E+00  0.317E-01  0.317E-01  0.317E-01  0.317E-01
   6.970  0.622E-01  0.195E-01  0.116E-01  0.116E-01  0.195E-01
   6.995  0.519E-01  0.176E-01  0.838E-02  0.838E-02  0.176E-01
   7.020  0.459E-01  0.152E-01  0.775E-02  0.775E-02  0.152E-01
   7.045  0.211E-01  0.699E-02  0.358E-02  0.358E-02  0.699E-02
   7.070  0.525E-01  0.175E-01  0.875E-02  0.875E-02  0.175E-01
   7.095  0.177E+00  0.586E-01  0.299E-01  0.299E-01  0.586E-01
   7.120  0.173E+00  0.575E-01  0.292E-01  0.292E-01  0.575E-01
   7.145  0.967E-01  0.251E-01  0.233E-01  0.233E-01  0.251E-01
   7.170  0.162E+00  0.206E-01  0.601E-01  0.601E-01  0.206E-01
   7.195  0.123E+00  0.225E-01  0.391E-01  0.391E-01  0.225E-01
   7.220  0.138E+00  0.477E-01  0.212E-01  0.212E-01  0.477E-01
   7.245  0.126E+00  0.427E-01  0.204E-01  0.204E-01  0.427E-01
   7.270  0.224E+00  0.610E-01  0.508E-01  0.508E-01  0.610E-01
   7.295  0.325E+00  0.805E-01  0.818E-01  0.818E-01  0.805E-01
   7.320  0.118E+00  0.314E-01  0.275E-01  0.275E-01  0.314E-01
   7.345  0.281E-01  0.528E-02  0.876E-02  0.876E-02  0.528E-02
   7.370  0.961E-01  0.141E-01  0.340E-01  0.340E-01  0.141E-01
   7.395  0.205E+00  0.365E-01  0.661E-01  0.661E-01  0.365E-01
   7.420  0.249E+00  0.529E-01  0.716E-01  0.716E-01  0.529E-01
   7.445  0.184E+00  0.521E-01  0.400E-01  0.400E-01  0.521E-01
   7.470  0.891E-01  0.281E-01  0.165E-01  0.165E-01  0.281E-01
   7.495  0.177E-01  0.597E-02  0.288E-02  0.288E-02  0.597E-02
   7.520  0.737E-01  0.257E-01  0.111E-01  0.111E-01  0.257E-01
   7.545  0.112E+00  0.390E-01  0.169E-01  0.169E-01  0.390E-01
   7.570  0.138E+00  0.465E-01  0.225E-01  0.225E-01  0.465E-01
   7.595  0.205E+00  0.614E-01  0.412E-01  0.412E-01  0.614E-01
   7.620  0.163E+00  0.499E-01  0.316E-01  0.316E-01  0.499E-01
   7.645  0.854E-01  0.302E-01  0.124E-01  0.124E-01  0.302E-01
   7.670  0.724E-01  0.265E-01  0.965E-02  0.965E-02  0.265E-01
   7.695  0.128E+00  0.430E-01  0.209E-01  0.209E-01  0.430E-01
   7.720  0.155E+00  0.459E-01  0.316E-01  0.316E-01  0.459E-01
   7.745  0.617E-01  0.187E-01  0.121E-01  0.121E-01  0.187E-01
   7.770  0.454E-01  0.167E-01  0.605E-02  0.605E-02  0.167E-01
   7.795  0.319E-01  0.103E-01  0.569E-02  0.569E-02  0.103E-01
   7.820  0.513E-01  0.655E-02  0.191E-01  0.191E-01  0.655E-02
   7.845  0.779E-01  0.844E-02  0.305E-01  0.305E-01  0.844E-02
   7.870  0.408E-01  0.402E-02  0.164E-01  0.164E-01  0.402E-02
   7.895  0.222E-01  0.475E-02  0.637E-02  0.637E-02  0.475E-02
   7.920  0.172E+00  0.518E-01  0.341E-01  0.341E-01  0.518E-01
   7.945  0.287E+00  0.914E-01  0.519E-01  0.519E-01  0.914E-01
   7.970  0.792E-01  0.263E-01  0.133E-01  0.133E-01  0.263E-01
   7.995  0.127E-01  0.467E-02  0.169E-02  0.169E-02  0.467E-02
   8.020  0.929E-02  0.353E-02  0.111E-02  0.111E-02  0.353E-02
   8.045  0.339E-01  0.129E-01  0.403E-02  0.403E-02  0.129E-01
   8.070  0.425E-01  0.160E-01  0.521E-02  0.521E-02  0.160E-01
   8.095  0.687E-01  0.257E-01  0.867E-02  0.867E-02  0.257E-01
   8.120  0.266E-01  0.994E-02  0.336E-02  0.336E-02  0.994E-02
   8.145  0.142E-02  0.532E-03  0.180E-03  0.180E-03  0.532E-03
   8.170  0.103E-04  0.386E-05  0.130E-05  0.130E-05  0.386E-05
   8.195  0.101E-07  0.379E-08  0.128E-08  0.128E-08  0.379E-08
