# E(eV)   ldos(E)   pdos(E)_1   pdos(E)_2   
  -7.905  0.871E-05  0.435E-05  0.435E-05
  -7.880  0.152E-02  0.758E-03  0.758E-03
  -7.855  0.456E-01  0.228E-01  0.228E-01
  -7.830  0.321E+00  0.161E+00  0.161E+00
  -7.805  0.763E+00  0.381E+00  0.381E+00
  -7.780  0.671E+00  0.335E+00  0.335E+00
  -7.755  0.326E+00  0.163E+00  0.163E+00
  -7.730  0.422E+00  0.211E+00  0.211E+00
  -7.705  0.499E+00  0.250E+00  0.250E+00
  -7.680  0.237E+00  0.119E+00  0.119E+00
  -7.655  0.148E+00  0.740E-01  0.740E-01
  -7.630  0.258E+00  0.129E+00  0.129E+00
  -7.605  0.266E+00  0.133E+00  0.133E+00
  -7.580  0.289E+00  0.145E+00  0.145E+00
  -7.555  0.138E+00  0.692E-01  0.692E-01
  -7.530  0.156E+00  0.779E-01  0.779E-01
  -7.505  0.249E+00  0.125E+00  0.125E+00
  -7.480  0.243E+00  0.121E+00  0.121E+00
  -7.455  0.310E+00  0.155E+00  0.155E+00
  -7.430  0.277E+00  0.138E+00  0.138E+00
  -7.405  0.217E+00  0.109E+00  0.109E+00
  -7.380  0.842E-01  0.421E-01  0.421E-01
  -7.355  0.118E+00  0.591E-01  0.591E-01
  -7.330  0.194E+00  0.971E-01  0.971E-01
  -7.305  0.125E+00  0.627E-01  0.627E-01
  -7.280  0.141E+00  0.704E-01  0.704E-01
  -7.255  0.228E+00  0.114E+00  0.114E+00
  -7.230  0.130E+00  0.652E-01  0.652E-01
  -7.205  0.369E-01  0.185E-01  0.185E-01
  -7.180  0.125E-01  0.625E-02  0.625E-02
  -7.155  0.109E+00  0.545E-01  0.545E-01
  -7.130  0.309E+00  0.155E+00  0.155E+00
  -7.105  0.194E+00  0.970E-01  0.970E-01
  -7.080  0.205E-01  0.103E-01  0.103E-01
  -7.055  0.167E-02  0.836E-03  0.836E-03
  -7.030  0.442E-01  0.221E-01  0.221E-01
  -7.005  0.237E+00  0.118E+00  0.118E+00
  -6.980  0.247E+00  0.124E+00  0.124E+00
  -6.955  0.102E+00  0.509E-01  0.509E-01
  -6.930  0.185E+00  0.927E-01  0.927E-01
  -6.905  0.237E+00  0.119E+00  0.119E+00
  -6.880  0.185E+00  0.924E-01  0.924E-01
  -6.855  0.716E-01  0.358E-01  0.358E-01
  -6.830  0.112E+00  0.559E-01  0.559E-01
  -6.805  0.143E+00  0.714E-01  0.714E-01
  -6.780  0.756E-01  0.378E-01  0.378E-01
  -6.755  0.724E-01  0.362E-01  0.362E-01
  -6.730  0.835E-01  0.418E-01  0.418E-01
  -6.705  0.105E+00  0.525E-01  0.525E-01
  -6.680  0.233E+00  0.116E+00  0.116E+00
  -6.655  0.987E-01  0.493E-01  0.493E-01
  -6.630  0.843E-01  0.421E-01  0.421E-01
  -6.605  0.174E+00  0.872E-01  0.872E-01
  -6.580  0.117E+00  0.587E-01  0.587E-01
  -6.555  0.512E-01  0.256E-01  0.256E-01
  -6.530  0.646E-01  0.323E-01  0.323E-01
  -6.505  0.109E+00  0.543E-01  0.543E-01
  -6.480  0.744E-01  0.372E-01  0.372E-01
  -6.455  0.995E-01  0.498E-01  0.498E-01
  -6.430  0.208E+00  0.104E+00  0.104E+00
  -6.405  0.232E+00  0.116E+00  0.116E+00
  -6.380  0.661E-01  0.330E-01  0.330E-01
  -6.355  0.786E-02  0.393E-02  0.393E-02
  -6.330  0.350E-02  0.175E-02  0.175E-02
  -6.305  0.480E-01  0.240E-01  0.240E-01
  -6.280  0.130E+00  0.651E-01  0.651E-01
  -6.255  0.695E-01  0.347E-01  0.347E-01
  -6.230  0.194E-01  0.968E-02  0.968E-02
  -6.205  0.556E-01  0.278E-01  0.278E-01
  -6.180  0.682E-01  0.341E-01  0.341E-01
  -6.155  0.163E+00  0.817E-01  0.817E-01
  -6.130  0.178E+00  0.892E-01  0.892E-01
  -6.105  0.137E+00  0.686E-01  0.686E-01
  -6.080  0.716E-01  0.358E-01  0.358E-01
  -6.055  0.104E+00  0.522E-01  0.522E-01
  -6.030  0.578E-01  0.289E-01  0.289E-01
  -6.005  0.803E-01  0.401E-01  0.401E-01
  -5.980  0.125E+00  0.624E-01  0.624E-01
  -5.955  0.734E-01  0.367E-01  0.367E-01
  -5.930  0.238E-01  0.119E-01  0.119E-01
  -5.905  0.210E-01  0.105E-01  0.105E-01
  -5.880  0.825E-01  0.413E-01  0.413E-01
  -5.855  0.181E+00  0.906E-01  0.906E-01
  -5.830  0.109E+00  0.546E-01  0.546E-01
  -5.805  0.138E+00  0.690E-01  0.690E-01
  -5.780  0.200E+00  0.100E+00  0.100E+00
  -5.755  0.782E-01  0.391E-01  0.391E-01
  -5.730  0.295E-01  0.148E-01  0.148E-01
  -5.705  0.127E+00  0.633E-01  0.633E-01
  -5.680  0.116E+00  0.580E-01  0.580E-01
  -5.655  0.185E-01  0.926E-02  0.926E-02
  -5.630  0.289E-02  0.145E-02  0.145E-02
  -5.605  0.447E-01  0.223E-01  0.223E-01
  -5.580  0.134E+00  0.672E-01  0.672E-01
  -5.555  0.135E+00  0.673E-01  0.673E-01
  -5.530  0.538E-01  0.269E-01  0.269E-01
  -5.505  0.423E-01  0.212E-01  0.212E-01
  -5.480  0.142E+00  0.708E-01  0.708E-01
  -5.455  0.861E-01  0.430E-01  0.430E-01
  -5.430  0.982E-02  0.491E-02  0.491E-02
  -5.405  0.684E-02  0.342E-02  0.342E-02
  -5.380  0.848E-01  0.424E-01  0.424E-01
  -5.355  0.157E+00  0.786E-01  0.786E-01
  -5.330  0.436E-01  0.218E-01  0.218E-01
  -5.305  0.121E-01  0.604E-02  0.604E-02
  -5.280  0.522E-01  0.261E-01  0.261E-01
  -5.255  0.427E-01  0.214E-01  0.214E-01
  -5.230  0.298E-01  0.149E-01  0.149E-01
  -5.205  0.204E-01  0.102E-01  0.102E-01
  -5.180  0.745E-01  0.373E-01  0.373E-01
  -5.155  0.103E+00  0.516E-01  0.516E-01
  -5.130  0.386E-01  0.193E-01  0.193E-01
  -5.105  0.655E-01  0.327E-01  0.327E-01
  -5.080  0.776E-01  0.388E-01  0.388E-01
  -5.055  0.219E+00  0.110E+00  0.110E+00
  -5.030  0.180E+00  0.899E-01  0.899E-01
  -5.005  0.320E-01  0.160E-01  0.160E-01
  -4.980  0.298E-01  0.149E-01  0.149E-01
  -4.955  0.120E+00  0.601E-01  0.601E-01
  -4.930  0.129E+00  0.647E-01  0.647E-01
  -4.905  0.724E-01  0.362E-01  0.362E-01
  -4.880  0.978E-01  0.489E-01  0.489E-01
  -4.855  0.292E+00  0.146E+00  0.146E+00
  -4.830  0.229E+00  0.115E+00  0.115E+00
  -4.805  0.571E-01  0.286E-01  0.286E-01
  -4.780  0.115E+00  0.576E-01  0.576E-01
  -4.755  0.868E-01  0.434E-01  0.434E-01
  -4.730  0.679E-01  0.339E-01  0.339E-01
  -4.705  0.309E-01  0.154E-01  0.154E-01
  -4.680  0.707E-02  0.354E-02  0.354E-02
  -4.655  0.677E-01  0.338E-01  0.338E-01
  -4.630  0.202E+00  0.101E+00  0.101E+00
  -4.605  0.141E+00  0.703E-01  0.703E-01
  -4.580  0.588E-01  0.294E-01  0.294E-01
  -4.555  0.199E+00  0.993E-01  0.993E-01
  -4.530  0.181E+00  0.904E-01  0.904E-01
  -4.505  0.177E+00  0.885E-01  0.885E-01
  -4.480  0.113E+00  0.564E-01  0.564E-01
  -4.455  0.166E-01  0.832E-02  0.832E-02
  -4.430  0.142E-01  0.708E-02  0.708E-02
  -4.405  0.108E+00  0.538E-01  0.538E-01
  -4.380  0.164E+00  0.821E-01  0.821E-01
  -4.355  0.177E+00  0.884E-01  0.884E-01
  -4.330  0.214E+00  0.107E+00  0.107E+00
  -4.305  0.203E+00  0.102E+00  0.102E+00
  -4.280  0.592E-01  0.296E-01  0.296E-01
  -4.255  0.148E+00  0.742E-01  0.742E-01
  -4.230  0.403E+00  0.202E+00  0.202E+00
  -4.205  0.244E+00  0.122E+00  0.122E+00
  -4.180  0.238E-01  0.119E-01  0.119E-01
  -4.155  0.339E-03  0.169E-03  0.169E-03
  -4.130  0.151E-05  0.757E-06  0.757E-06
  -4.105  0.220E-03  0.110E-03  0.110E-03
  -4.080  0.827E-02  0.413E-02  0.413E-02
  -4.055  0.656E-01  0.328E-01  0.328E-01
  -4.030  0.230E+00  0.115E+00  0.115E+00
  -4.005  0.232E+00  0.116E+00  0.116E+00
  -3.980  0.257E+00  0.129E+00  0.129E+00
  -3.955  0.354E+00  0.177E+00  0.177E+00
  -3.930  0.153E+00  0.764E-01  0.764E-01
  -3.905  0.750E-01  0.375E-01  0.375E-01
  -3.880  0.112E+00  0.558E-01  0.558E-01
  -3.855  0.149E+00  0.746E-01  0.746E-01
  -3.830  0.156E+00  0.782E-01  0.782E-01
  -3.805  0.145E+00  0.725E-01  0.725E-01
  -3.780  0.153E+00  0.764E-01  0.764E-01
  -3.755  0.123E+00  0.613E-01  0.613E-01
  -3.730  0.153E+00  0.767E-01  0.767E-01
  -3.705  0.240E+00  0.120E+00  0.120E+00
  -3.680  0.188E+00  0.938E-01  0.938E-01
  -3.655  0.170E+00  0.851E-01  0.851E-01
  -3.630  0.112E+00  0.561E-01  0.561E-01
  -3.605  0.174E+00  0.872E-01  0.872E-01
  -3.580  0.959E-01  0.480E-01  0.480E-01
  -3.555  0.436E-01  0.218E-01  0.218E-01
  -3.530  0.655E-01  0.327E-01  0.327E-01
  -3.505  0.105E+00  0.526E-01  0.526E-01
  -3.480  0.100E+00  0.502E-01  0.502E-01
  -3.455  0.399E-01  0.199E-01  0.199E-01
  -3.430  0.972E-01  0.486E-01  0.486E-01
  -3.405  0.239E+00  0.119E+00  0.119E+00
  -3.380  0.311E+00  0.155E+00  0.155E+00
  -3.355  0.254E+00  0.127E+00  0.127E+00
  -3.330  0.138E+00  0.690E-01  0.690E-01
  -3.305  0.122E+00  0.610E-01  0.610E-01
  -3.280  0.123E+00  0.616E-01  0.616E-01
  -3.255  0.232E+00  0.116E+00  0.116E+00
  -3.230  0.224E+00  0.112E+00  0.112E+00
  -3.205  0.879E-01  0.439E-01  0.439E-01
  -3.180  0.963E-02  0.482E-02  0.482E-02
  -3.155  0.326E-01  0.163E-01  0.163E-01
  -3.130  0.134E+00  0.670E-01  0.670E-01
  -3.105  0.120E+00  0.601E-01  0.601E-01
  -3.080  0.549E-01  0.274E-01  0.274E-01
  -3.055  0.765E-01  0.383E-01  0.383E-01
  -3.030  0.123E+00  0.613E-01  0.613E-01
  -3.005  0.851E-01  0.426E-01  0.426E-01
  -2.980  0.407E-01  0.203E-01  0.203E-01
  -2.955  0.940E-01  0.470E-01  0.470E-01
  -2.930  0.689E-01  0.344E-01  0.344E-01
  -2.905  0.534E-01  0.267E-01  0.267E-01
  -2.880  0.477E-01  0.239E-01  0.239E-01
  -2.855  0.223E+00  0.111E+00  0.111E+00
  -2.830  0.264E+00  0.132E+00  0.132E+00
  -2.805  0.237E+00  0.118E+00  0.118E+00
  -2.780  0.144E+00  0.722E-01  0.722E-01
  -2.755  0.193E-01  0.964E-02  0.964E-02
  -2.730  0.639E-01  0.320E-01  0.320E-01
  -2.705  0.109E+00  0.545E-01  0.545E-01
  -2.680  0.647E-01  0.324E-01  0.324E-01
  -2.655  0.496E-01  0.248E-01  0.248E-01
  -2.630  0.520E-01  0.260E-01  0.260E-01
  -2.605  0.685E-01  0.343E-01  0.343E-01
  -2.580  0.691E-01  0.345E-01  0.345E-01
  -2.555  0.233E+00  0.117E+00  0.117E+00
  -2.530  0.239E+00  0.120E+00  0.120E+00
  -2.505  0.134E+00  0.668E-01  0.668E-01
  -2.480  0.123E+00  0.615E-01  0.615E-01
  -2.455  0.986E-01  0.493E-01  0.493E-01
  -2.430  0.175E+00  0.874E-01  0.874E-01
  -2.405  0.185E+00  0.925E-01  0.925E-01
  -2.380  0.170E+00  0.848E-01  0.848E-01
  -2.355  0.840E-01  0.420E-01  0.420E-01
  -2.330  0.192E+00  0.960E-01  0.960E-01
  -2.305  0.159E+00  0.794E-01  0.794E-01
  -2.280  0.763E-01  0.382E-01  0.382E-01
  -2.255  0.957E-01  0.479E-01  0.479E-01
  -2.230  0.127E+00  0.634E-01  0.634E-01
  -2.205  0.352E-01  0.176E-01  0.176E-01
  -2.180  0.203E-01  0.102E-01  0.102E-01
  -2.155  0.169E+00  0.845E-01  0.845E-01
  -2.130  0.384E+00  0.192E+00  0.192E+00
  -2.105  0.234E+00  0.117E+00  0.117E+00
  -2.080  0.330E-01  0.165E-01  0.165E-01
  -2.055  0.429E-01  0.215E-01  0.215E-01
  -2.030  0.304E-01  0.152E-01  0.152E-01
  -2.005  0.294E-02  0.147E-02  0.147E-02
  -1.980  0.255E-03  0.127E-03  0.127E-03
  -1.955  0.298E-02  0.149E-02  0.149E-02
  -1.930  0.562E-02  0.281E-02  0.281E-02
  -1.905  0.649E-02  0.325E-02  0.325E-02
  -1.880  0.714E-01  0.357E-01  0.357E-01
  -1.855  0.150E+00  0.748E-01  0.748E-01
  -1.830  0.460E-01  0.230E-01  0.230E-01
  -1.805  0.247E-02  0.124E-02  0.124E-02
  -1.780  0.154E-01  0.772E-02  0.772E-02
  -1.755  0.827E-01  0.414E-01  0.414E-01
  -1.730  0.106E+00  0.530E-01  0.530E-01
  -1.705  0.167E+00  0.834E-01  0.834E-01
  -1.680  0.743E-01  0.372E-01  0.372E-01
  -1.655  0.472E-02  0.236E-02  0.236E-02
  -1.630  0.438E-04  0.219E-04  0.219E-04
  -1.605  0.314E-03  0.157E-03  0.157E-03
  -1.580  0.499E-02  0.249E-02  0.249E-02
  -1.555  0.156E-01  0.779E-02  0.779E-02
  -1.530  0.858E-01  0.429E-01  0.429E-01
  -1.505  0.193E+00  0.966E-01  0.966E-01
  -1.480  0.111E+00  0.555E-01  0.555E-01
  -1.455  0.122E+00  0.609E-01  0.609E-01
  -1.430  0.134E+00  0.669E-01  0.669E-01
  -1.405  0.120E+00  0.599E-01  0.599E-01
  -1.380  0.436E-01  0.218E-01  0.218E-01
  -1.355  0.698E-01  0.349E-01  0.349E-01
  -1.330  0.137E+00  0.687E-01  0.687E-01
  -1.305  0.997E-01  0.499E-01  0.499E-01
  -1.280  0.122E+00  0.611E-01  0.611E-01
  -1.255  0.140E+00  0.700E-01  0.700E-01
  -1.230  0.121E+00  0.603E-01  0.603E-01
  -1.205  0.107E+00  0.536E-01  0.536E-01
  -1.180  0.199E-01  0.994E-02  0.994E-02
  -1.155  0.101E-02  0.507E-03  0.507E-03
  -1.130  0.809E-02  0.405E-02  0.405E-02
  -1.105  0.234E-01  0.117E-01  0.117E-01
  -1.080  0.143E-01  0.716E-02  0.716E-02
  -1.055  0.547E-01  0.273E-01  0.273E-01
  -1.030  0.795E-01  0.398E-01  0.398E-01
  -1.005  0.543E-01  0.271E-01  0.271E-01
  -0.980  0.102E+00  0.509E-01  0.509E-01
  -0.955  0.124E+00  0.620E-01  0.620E-01
  -0.930  0.856E-01  0.428E-01  0.428E-01
  -0.905  0.447E-01  0.224E-01  0.224E-01
  -0.880  0.735E-01  0.367E-01  0.367E-01
  -0.855  0.951E-01  0.476E-01  0.476E-01
  -0.830  0.419E-01  0.210E-01  0.210E-01
  -0.805  0.774E-01  0.387E-01  0.387E-01
  -0.780  0.115E+00  0.575E-01  0.575E-01
  -0.755  0.813E-01  0.407E-01  0.407E-01
  -0.730  0.660E-01  0.330E-01  0.330E-01
  -0.705  0.193E-01  0.963E-02  0.963E-02
  -0.680  0.658E-01  0.329E-01  0.329E-01
  -0.655  0.145E+00  0.723E-01  0.723E-01
  -0.630  0.939E-01  0.469E-01  0.469E-01
  -0.605  0.644E-01  0.322E-01  0.322E-01
  -0.580  0.728E-01  0.364E-01  0.364E-01
  -0.555  0.279E-01  0.140E-01  0.140E-01
  -0.530  0.236E-01  0.118E-01  0.118E-01
  -0.505  0.107E+00  0.535E-01  0.535E-01
  -0.480  0.162E+00  0.810E-01  0.810E-01
  -0.455  0.130E+00  0.650E-01  0.650E-01
  -0.430  0.120E+00  0.599E-01  0.599E-01
  -0.405  0.757E-01  0.378E-01  0.378E-01
  -0.380  0.176E-01  0.881E-02  0.881E-02
  -0.355  0.180E-01  0.898E-02  0.898E-02
  -0.330  0.884E-01  0.442E-01  0.442E-01
  -0.305  0.111E+00  0.554E-01  0.554E-01
  -0.280  0.341E-01  0.171E-01  0.171E-01
  -0.255  0.614E-01  0.307E-01  0.307E-01
  -0.230  0.135E+00  0.674E-01  0.674E-01
  -0.205  0.920E-01  0.460E-01  0.460E-01
  -0.180  0.343E-01  0.171E-01  0.171E-01
  -0.155  0.745E-01  0.372E-01  0.372E-01
  -0.130  0.949E-01  0.475E-01  0.475E-01
  -0.105  0.930E-01  0.465E-01  0.465E-01
  -0.080  0.456E-01  0.228E-01  0.228E-01
  -0.055  0.138E-01  0.688E-02  0.688E-02
  -0.030  0.372E-01  0.186E-01  0.186E-01
  -0.005  0.604E-01  0.302E-01  0.302E-01
   0.020  0.773E-01  0.387E-01  0.387E-01
   0.045  0.127E+00  0.636E-01  0.636E-01
   0.070  0.980E-01  0.490E-01  0.490E-01
   0.095  0.107E+00  0.537E-01  0.537E-01
   0.120  0.704E-01  0.352E-01  0.352E-01
   0.145  0.834E-01  0.417E-01  0.417E-01
   0.170  0.713E-01  0.356E-01  0.356E-01
   0.195  0.482E-01  0.241E-01  0.241E-01
   0.220  0.215E-01  0.108E-01  0.108E-01
   0.245  0.664E-01  0.332E-01  0.332E-01
   0.270  0.967E-01  0.484E-01  0.484E-01
   0.295  0.313E-01  0.157E-01  0.157E-01
   0.320  0.369E-02  0.185E-02  0.185E-02
   0.345  0.208E-01  0.104E-01  0.104E-01
   0.370  0.892E-01  0.446E-01  0.446E-01
   0.395  0.666E-01  0.333E-01  0.333E-01
   0.420  0.607E-01  0.304E-01  0.304E-01
   0.445  0.131E+00  0.653E-01  0.653E-01
   0.470  0.868E-01  0.434E-01  0.434E-01
   0.495  0.203E-01  0.101E-01  0.101E-01
   0.520  0.457E-01  0.229E-01  0.229E-01
   0.545  0.629E-01  0.315E-01  0.315E-01
   0.570  0.361E-01  0.181E-01  0.181E-01
   0.595  0.118E-01  0.589E-02  0.589E-02
   0.620  0.441E-01  0.221E-01  0.221E-01
   0.645  0.470E-01  0.235E-01  0.235E-01
   0.670  0.670E-01  0.335E-01  0.335E-01
   0.695  0.926E-01  0.463E-01  0.463E-01
   0.720  0.101E+00  0.505E-01  0.505E-01
   0.745  0.899E-01  0.450E-01  0.450E-01
   0.770  0.440E-01  0.220E-01  0.220E-01
   0.795  0.752E-01  0.376E-01  0.376E-01
   0.820  0.700E-01  0.350E-01  0.350E-01
   0.845  0.233E-01  0.117E-01  0.117E-01
   0.870  0.205E-02  0.102E-02  0.102E-02
   0.895  0.222E-02  0.111E-02  0.111E-02
   0.920  0.311E-01  0.155E-01  0.155E-01
   0.945  0.121E+00  0.604E-01  0.604E-01
   0.970  0.132E+00  0.661E-01  0.661E-01
   0.995  0.830E-01  0.415E-01  0.415E-01
   1.020  0.105E+00  0.527E-01  0.527E-01
   1.045  0.828E-01  0.414E-01  0.414E-01
   1.070  0.203E-01  0.101E-01  0.101E-01
   1.095  0.364E-01  0.182E-01  0.182E-01
   1.120  0.667E-01  0.334E-01  0.334E-01
   1.145  0.202E-01  0.101E-01  0.101E-01
   1.170  0.246E-01  0.123E-01  0.123E-01
   1.195  0.635E-01  0.318E-01  0.318E-01
   1.220  0.433E-01  0.216E-01  0.216E-01
   1.245  0.547E-01  0.274E-01  0.274E-01
   1.270  0.974E-01  0.487E-01  0.487E-01
   1.295  0.132E+00  0.659E-01  0.659E-01
   1.320  0.690E-01  0.345E-01  0.345E-01
   1.345  0.660E-01  0.330E-01  0.330E-01
   1.370  0.348E-01  0.174E-01  0.174E-01
   1.395  0.271E-01  0.135E-01  0.135E-01
   1.420  0.277E-01  0.139E-01  0.139E-01
   1.445  0.197E-01  0.984E-02  0.984E-02
   1.470  0.381E-01  0.191E-01  0.191E-01
   1.495  0.449E-01  0.224E-01  0.224E-01
   1.520  0.344E-01  0.172E-01  0.172E-01
   1.545  0.204E-01  0.102E-01  0.102E-01
   1.570  0.507E-01  0.254E-01  0.254E-01
   1.595  0.432E-01  0.216E-01  0.216E-01
   1.620  0.390E-01  0.195E-01  0.195E-01
   1.645  0.541E-01  0.271E-01  0.271E-01
   1.670  0.569E-01  0.285E-01  0.285E-01
   1.695  0.385E-01  0.193E-01  0.193E-01
   1.720  0.210E-01  0.105E-01  0.105E-01
   1.745  0.438E-02  0.219E-02  0.219E-02
   1.770  0.225E-02  0.113E-02  0.113E-02
   1.795  0.604E-02  0.302E-02  0.302E-02
   1.820  0.367E-01  0.183E-01  0.183E-01
   1.845  0.410E-01  0.205E-01  0.205E-01
   1.870  0.114E-01  0.569E-02  0.569E-02
   1.895  0.401E-01  0.201E-01  0.201E-01
   1.920  0.922E-01  0.461E-01  0.461E-01
   1.945  0.122E+00  0.611E-01  0.611E-01
   1.970  0.943E-01  0.471E-01  0.471E-01
   1.995  0.405E-01  0.202E-01  0.202E-01
   2.020  0.273E-01  0.137E-01  0.137E-01
   2.045  0.200E-01  0.100E-01  0.100E-01
   2.070  0.195E-01  0.973E-02  0.973E-02
   2.095  0.520E-02  0.260E-02  0.260E-02
   2.120  0.464E-03  0.232E-03  0.232E-03
   2.145  0.827E-03  0.414E-03  0.414E-03
   2.170  0.370E-02  0.185E-02  0.185E-02
   2.195  0.204E-01  0.102E-01  0.102E-01
   2.220  0.689E-01  0.345E-01  0.345E-01
   2.245  0.706E-01  0.353E-01  0.353E-01
   2.270  0.670E-01  0.335E-01  0.335E-01
   2.295  0.489E-01  0.245E-01  0.245E-01
   2.320  0.579E-01  0.289E-01  0.289E-01
   2.345  0.420E-01  0.210E-01  0.210E-01
   2.370  0.916E-02  0.458E-02  0.458E-02
   2.395  0.126E-01  0.631E-02  0.631E-02
   2.420  0.199E-01  0.996E-02  0.996E-02
   2.445  0.865E-02  0.433E-02  0.433E-02
   2.470  0.242E-01  0.121E-01  0.121E-01
   2.495  0.382E-01  0.191E-01  0.191E-01
   2.520  0.359E-01  0.180E-01  0.180E-01
   2.545  0.286E-01  0.143E-01  0.143E-01
   2.570  0.177E-01  0.887E-02  0.887E-02
   2.595  0.259E-01  0.129E-01  0.129E-01
   2.620  0.922E-02  0.461E-02  0.461E-02
   2.645  0.863E-02  0.432E-02  0.432E-02
   2.670  0.340E-01  0.170E-01  0.170E-01
   2.695  0.238E-01  0.119E-01  0.119E-01
   2.720  0.407E-02  0.204E-02  0.204E-02
   2.745  0.566E-02  0.283E-02  0.283E-02
   2.770  0.840E-02  0.420E-02  0.420E-02
   2.795  0.127E-01  0.636E-02  0.636E-02
   2.820  0.331E-01  0.165E-01  0.165E-01
   2.845  0.340E-01  0.170E-01  0.170E-01
   2.870  0.313E-01  0.157E-01  0.157E-01
   2.895  0.485E-01  0.242E-01  0.242E-01
   2.920  0.377E-01  0.188E-01  0.188E-01
   2.945  0.330E-01  0.165E-01  0.165E-01
   2.970  0.243E-01  0.121E-01  0.121E-01
   2.995  0.200E-01  0.100E-01  0.100E-01
   3.020  0.996E-02  0.498E-02  0.498E-02
   3.045  0.686E-02  0.343E-02  0.343E-02
   3.070  0.237E-01  0.119E-01  0.119E-01
   3.095  0.220E-01  0.110E-01  0.110E-01
   3.120  0.203E-01  0.101E-01  0.101E-01
   3.145  0.110E-01  0.551E-02  0.551E-02
   3.170  0.486E-02  0.243E-02  0.243E-02
   3.195  0.287E-02  0.143E-02  0.143E-02
   3.220  0.899E-02  0.449E-02  0.449E-02
   3.245  0.102E-01  0.508E-02  0.508E-02
   3.270  0.121E-01  0.603E-02  0.603E-02
   3.295  0.158E-01  0.789E-02  0.789E-02
   3.320  0.495E-02  0.248E-02  0.248E-02
   3.345  0.100E-02  0.502E-03  0.502E-03
   3.370  0.947E-03  0.474E-03  0.474E-03
   3.395  0.173E-03  0.863E-04  0.863E-04
   3.420  0.350E-04  0.175E-04  0.175E-04
   3.445  0.668E-03  0.334E-03  0.334E-03
   3.470  0.913E-02  0.456E-02  0.456E-02
   3.495  0.203E-01  0.102E-01  0.102E-01
   3.520  0.218E-01  0.109E-01  0.109E-01
   3.545  0.247E-01  0.123E-01  0.123E-01
   3.570  0.133E-01  0.664E-02  0.664E-02
   3.595  0.148E-01  0.740E-02  0.740E-02
   3.620  0.870E-02  0.435E-02  0.435E-02
   3.645  0.218E-02  0.109E-02  0.109E-02
   3.670  0.227E-02  0.113E-02  0.113E-02
   3.695  0.143E-01  0.713E-02  0.713E-02
   3.720  0.203E-01  0.102E-01  0.102E-01
   3.745  0.155E-01  0.775E-02  0.775E-02
   3.770  0.147E-01  0.736E-02  0.736E-02
   3.795  0.996E-02  0.498E-02  0.498E-02
   3.820  0.500E-02  0.250E-02  0.250E-02
   3.845  0.531E-02  0.266E-02  0.266E-02
   3.870  0.125E-02  0.626E-03  0.626E-03
   3.895  0.658E-03  0.329E-03  0.329E-03
   3.920  0.112E-02  0.559E-03  0.559E-03
   3.945  0.247E-02  0.124E-02  0.124E-02
   3.970  0.274E-02  0.137E-02  0.137E-02
   3.995  0.368E-02  0.184E-02  0.184E-02
   4.020  0.304E-02  0.152E-02  0.152E-02
   4.045  0.423E-02  0.211E-02  0.211E-02
   4.070  0.134E-02  0.668E-03  0.668E-03
   4.095  0.580E-04  0.290E-04  0.290E-04
   4.120  0.966E-05  0.483E-05  0.483E-05
   4.145  0.298E-03  0.149E-03  0.149E-03
   4.170  0.159E-02  0.793E-03  0.793E-03
   4.195  0.390E-02  0.195E-02  0.195E-02
   4.220  0.521E-02  0.261E-02  0.261E-02
   4.245  0.618E-02  0.309E-02  0.309E-02
   4.270  0.496E-02  0.248E-02  0.248E-02
   4.295  0.762E-03  0.381E-03  0.381E-03
   4.320  0.136E-02  0.679E-03  0.679E-03
   4.345  0.354E-02  0.177E-02  0.177E-02
   4.370  0.141E-02  0.705E-03  0.705E-03
   4.395  0.896E-04  0.448E-04  0.448E-04
   4.420  0.563E-03  0.281E-03  0.281E-03
   4.445  0.430E-02  0.215E-02  0.215E-02
   4.470  0.592E-02  0.296E-02  0.296E-02
   4.495  0.172E-02  0.858E-03  0.858E-03
   4.520  0.862E-03  0.431E-03  0.431E-03
   4.545  0.455E-03  0.228E-03  0.228E-03
   4.570  0.358E-04  0.179E-04  0.179E-04
   4.595  0.382E-06  0.191E-06  0.191E-06
   4.620  0.235E-06  0.118E-06  0.118E-06
   4.645  0.221E-04  0.111E-04  0.111E-04
   4.670  0.282E-03  0.141E-03  0.141E-03
   4.695  0.486E-03  0.243E-03  0.243E-03
   4.720  0.114E-03  0.568E-04  0.568E-04
   4.745  0.592E-05  0.296E-05  0.296E-05
   4.770  0.301E-05  0.151E-05  0.151E-05
   4.795  0.521E-06  0.260E-06  0.260E-06
   4.820  0.124E-07  0.621E-08  0.621E-08
   4.845  0.241E-09  0.120E-09  0.120E-09
   4.870  0.350E-09  0.175E-09  0.175E-09
   4.895  0.103E-09  0.514E-10  0.514E-10
   4.920  0.410E-11  0.205E-11  0.205E-11
   4.945  0.221E-13  0.111E-13  0.111E-13
   4.970  0.162E-16  0.808E-17  0.808E-17
   4.995  0.160E-20  0.799E-21  0.799E-21
   5.020  0.214E-25  0.107E-25  0.107E-25
   5.045  0.000E+00  0.000E+00  0.000E+00
   5.070  0.000E+00  0.000E+00  0.000E+00
   5.095  0.000E+00  0.000E+00  0.000E+00
   5.120  0.000E+00  0.000E+00  0.000E+00
   5.145  0.000E+00  0.000E+00  0.000E+00
   5.170  0.000E+00  0.000E+00  0.000E+00
   5.195  0.000E+00  0.000E+00  0.000E+00
   5.220  0.000E+00  0.000E+00  0.000E+00
   5.245  0.000E+00  0.000E+00  0.000E+00
   5.270  0.000E+00  0.000E+00  0.000E+00
   5.295  0.000E+00  0.000E+00  0.000E+00
   5.320  0.000E+00  0.000E+00  0.000E+00
   5.345  0.000E+00  0.000E+00  0.000E+00
   5.370  0.000E+00  0.000E+00  0.000E+00
   5.395  0.000E+00  0.000E+00  0.000E+00
   5.420  0.000E+00  0.000E+00  0.000E+00
   5.445  0.000E+00  0.000E+00  0.000E+00
   5.470  0.000E+00  0.000E+00  0.000E+00
   5.495  0.000E+00  0.000E+00  0.000E+00
   5.520  0.000E+00  0.000E+00  0.000E+00
   5.545  0.000E+00  0.000E+00  0.000E+00
   5.570  0.000E+00  0.000E+00  0.000E+00
   5.595  0.000E+00  0.000E+00  0.000E+00
   5.620  0.000E+00  0.000E+00  0.000E+00
   5.645  0.000E+00  0.000E+00  0.000E+00
   5.670  0.294E-19  0.147E-19  0.147E-19
   5.695  0.416E-14  0.208E-14  0.208E-14
   5.720  0.797E-10  0.398E-10  0.398E-10
   5.745  0.207E-06  0.103E-06  0.103E-06
   5.770  0.726E-04  0.363E-04  0.363E-04
   5.795  0.346E-02  0.173E-02  0.173E-02
   5.820  0.232E-01  0.116E-01  0.116E-01
   5.845  0.287E-01  0.143E-01  0.143E-01
   5.870  0.253E-01  0.126E-01  0.126E-01
   5.895  0.382E-01  0.191E-01  0.191E-01
   5.920  0.305E-01  0.153E-01  0.153E-01
   5.945  0.272E-01  0.136E-01  0.136E-01
   5.970  0.896E-02  0.448E-02  0.448E-02
   5.995  0.429E-03  0.215E-03  0.215E-03
   6.020  0.279E-05  0.140E-05  0.140E-05
   6.045  0.246E-08  0.123E-08  0.123E-08
   6.070  0.137E-07  0.687E-08  0.687E-08
   6.095  0.112E-04  0.561E-05  0.561E-05
   6.120  0.124E-02  0.621E-03  0.621E-03
   6.145  0.186E-01  0.930E-02  0.930E-02
   6.170  0.378E-01  0.189E-01  0.189E-01
   6.195  0.134E-01  0.671E-02  0.671E-02
   6.220  0.283E-01  0.141E-01  0.141E-01
   6.245  0.689E-01  0.344E-01  0.344E-01
   6.270  0.940E-01  0.470E-01  0.470E-01
   6.295  0.923E-01  0.462E-01  0.462E-01
   6.320  0.140E+00  0.702E-01  0.702E-01
   6.345  0.805E-01  0.403E-01  0.403E-01
   6.370  0.581E-01  0.290E-01  0.290E-01
   6.395  0.110E+00  0.548E-01  0.548E-01
   6.420  0.111E+00  0.554E-01  0.554E-01
   6.445  0.435E-01  0.217E-01  0.217E-01
   6.470  0.351E-02  0.175E-02  0.175E-02
   6.495  0.207E-01  0.103E-01  0.103E-01
   6.520  0.130E+00  0.650E-01  0.650E-01
   6.545  0.231E+00  0.116E+00  0.116E+00
   6.570  0.104E+00  0.519E-01  0.519E-01
   6.595  0.517E-01  0.258E-01  0.258E-01
   6.620  0.180E-01  0.902E-02  0.902E-02
   6.645  0.183E-01  0.916E-02  0.916E-02
   6.670  0.959E-01  0.480E-01  0.480E-01
   6.695  0.125E+00  0.627E-01  0.627E-01
   6.720  0.454E-01  0.227E-01  0.227E-01
   6.745  0.933E-01  0.466E-01  0.466E-01
   6.770  0.130E+00  0.648E-01  0.648E-01
   6.795  0.105E+00  0.527E-01  0.527E-01
   6.820  0.699E-01  0.350E-01  0.350E-01
   6.845  0.169E-01  0.845E-02  0.845E-02
   6.870  0.357E-01  0.178E-01  0.178E-01
   6.895  0.981E-01  0.491E-01  0.491E-01
   6.920  0.142E+00  0.708E-01  0.708E-01
   6.945  0.127E+00  0.635E-01  0.635E-01
   6.970  0.456E-01  0.228E-01  0.228E-01
   6.995  0.351E-01  0.175E-01  0.175E-01
   7.020  0.392E-01  0.196E-01  0.196E-01
   7.045  0.186E-01  0.929E-02  0.929E-02
   7.070  0.457E-01  0.228E-01  0.228E-01
   7.095  0.172E+00  0.861E-01  0.861E-01
   7.120  0.170E+00  0.849E-01  0.849E-01
   7.145  0.713E-01  0.356E-01  0.356E-01
   7.170  0.115E+00  0.577E-01  0.577E-01
   7.195  0.966E-01  0.483E-01  0.483E-01
   7.220  0.123E+00  0.614E-01  0.614E-01
   7.245  0.188E+00  0.941E-01  0.941E-01
   7.270  0.314E+00  0.157E+00  0.157E+00
   7.295  0.348E+00  0.174E+00  0.174E+00
   7.320  0.126E+00  0.628E-01  0.628E-01
   7.345  0.238E-01  0.119E-01  0.119E-01
   7.370  0.698E-01  0.349E-01  0.349E-01
   7.395  0.219E+00  0.109E+00  0.109E+00
   7.420  0.421E+00  0.211E+00  0.211E+00
   7.445  0.287E+00  0.143E+00  0.143E+00
   7.470  0.112E+00  0.560E-01  0.560E-01
   7.495  0.151E-01  0.754E-02  0.754E-02
   7.520  0.359E-01  0.180E-01  0.180E-01
   7.545  0.592E-01  0.296E-01  0.296E-01
   7.570  0.109E+00  0.543E-01  0.543E-01
   7.595  0.174E+00  0.871E-01  0.871E-01
   7.620  0.163E+00  0.816E-01  0.816E-01
   7.645  0.897E-01  0.448E-01  0.448E-01
   7.670  0.577E-01  0.289E-01  0.289E-01
   7.695  0.118E+00  0.592E-01  0.592E-01
   7.720  0.191E+00  0.957E-01  0.957E-01
   7.745  0.909E-01  0.454E-01  0.454E-01
   7.770  0.899E-01  0.449E-01  0.449E-01
   7.795  0.661E-01  0.331E-01  0.331E-01
   7.820  0.110E+00  0.552E-01  0.552E-01
   7.845  0.120E+00  0.599E-01  0.599E-01
   7.870  0.350E-01  0.175E-01  0.175E-01
   7.895  0.164E-01  0.820E-02  0.820E-02
   7.920  0.115E+00  0.577E-01  0.577E-01
   7.945  0.188E+00  0.941E-01  0.941E-01
   7.970  0.587E-01  0.293E-01  0.293E-01
   7.995  0.185E-01  0.923E-02  0.923E-02
   8.020  0.754E-02  0.377E-02  0.377E-02
   8.045  0.204E-01  0.102E-01  0.102E-01
   8.070  0.269E-01  0.135E-01  0.135E-01
   8.095  0.455E-01  0.228E-01  0.228E-01
   8.120  0.177E-01  0.883E-02  0.883E-02
   8.145  0.945E-03  0.472E-03  0.472E-03
   8.170  0.685E-05  0.342E-05  0.342E-05
   8.195  0.672E-08  0.336E-08  0.336E-08
