# E(eV)   ldos(E)   pdos(E)_1   pdos(E)_2   
  -7.905  0.788E-05  0.394E-05  0.394E-05
  -7.880  0.141E-02  0.704E-03  0.704E-03
  -7.855  0.430E-01  0.215E-01  0.215E-01
  -7.830  0.307E+00  0.154E+00  0.154E+00
  -7.805  0.754E+00  0.377E+00  0.377E+00
  -7.780  0.674E+00  0.337E+00  0.337E+00
  -7.755  0.328E+00  0.164E+00  0.164E+00
  -7.730  0.417E+00  0.208E+00  0.208E+00
  -7.705  0.493E+00  0.246E+00  0.246E+00
  -7.680  0.241E+00  0.120E+00  0.120E+00
  -7.655  0.146E+00  0.732E-01  0.732E-01
  -7.630  0.255E+00  0.128E+00  0.128E+00
  -7.605  0.265E+00  0.133E+00  0.133E+00
  -7.580  0.292E+00  0.146E+00  0.146E+00
  -7.555  0.141E+00  0.706E-01  0.706E-01
  -7.530  0.152E+00  0.762E-01  0.762E-01
  -7.505  0.249E+00  0.125E+00  0.125E+00
  -7.480  0.250E+00  0.125E+00  0.125E+00
  -7.455  0.310E+00  0.155E+00  0.155E+00
  -7.430  0.276E+00  0.138E+00  0.138E+00
  -7.405  0.218E+00  0.109E+00  0.109E+00
  -7.380  0.851E-01  0.425E-01  0.425E-01
  -7.355  0.116E+00  0.579E-01  0.579E-01
  -7.330  0.196E+00  0.979E-01  0.979E-01
  -7.305  0.125E+00  0.626E-01  0.626E-01
  -7.280  0.138E+00  0.692E-01  0.692E-01
  -7.255  0.231E+00  0.115E+00  0.115E+00
  -7.230  0.133E+00  0.664E-01  0.664E-01
  -7.205  0.371E-01  0.185E-01  0.185E-01
  -7.180  0.123E-01  0.616E-02  0.616E-02
  -7.155  0.106E+00  0.531E-01  0.531E-01
  -7.130  0.305E+00  0.152E+00  0.152E+00
  -7.105  0.198E+00  0.989E-01  0.989E-01
  -7.080  0.219E-01  0.110E-01  0.110E-01
  -7.055  0.171E-02  0.854E-03  0.854E-03
  -7.030  0.440E-01  0.220E-01  0.220E-01
  -7.005  0.236E+00  0.118E+00  0.118E+00
  -6.980  0.249E+00  0.124E+00  0.124E+00
  -6.955  0.103E+00  0.513E-01  0.513E-01
  -6.930  0.185E+00  0.924E-01  0.924E-01
  -6.905  0.239E+00  0.120E+00  0.120E+00
  -6.880  0.187E+00  0.935E-01  0.935E-01
  -6.855  0.729E-01  0.365E-01  0.365E-01
  -6.830  0.112E+00  0.559E-01  0.559E-01
  -6.805  0.142E+00  0.711E-01  0.711E-01
  -6.780  0.781E-01  0.391E-01  0.391E-01
  -6.755  0.734E-01  0.367E-01  0.367E-01
  -6.730  0.834E-01  0.417E-01  0.417E-01
  -6.705  0.102E+00  0.511E-01  0.511E-01
  -6.680  0.232E+00  0.116E+00  0.116E+00
  -6.655  0.101E+00  0.507E-01  0.507E-01
  -6.630  0.837E-01  0.418E-01  0.418E-01
  -6.605  0.174E+00  0.871E-01  0.871E-01
  -6.580  0.120E+00  0.598E-01  0.598E-01
  -6.555  0.516E-01  0.258E-01  0.258E-01
  -6.530  0.635E-01  0.318E-01  0.318E-01
  -6.505  0.109E+00  0.546E-01  0.546E-01
  -6.480  0.752E-01  0.376E-01  0.376E-01
  -6.455  0.994E-01  0.497E-01  0.497E-01
  -6.430  0.205E+00  0.103E+00  0.103E+00
  -6.405  0.232E+00  0.116E+00  0.116E+00
  -6.380  0.674E-01  0.337E-01  0.337E-01
  -6.355  0.835E-02  0.417E-02  0.417E-02
  -6.330  0.353E-02  0.177E-02  0.177E-02
  -6.305  0.477E-01  0.239E-01  0.239E-01
  -6.280  0.130E+00  0.650E-01  0.650E-01
  -6.255  0.703E-01  0.352E-01  0.352E-01
  -6.230  0.196E-01  0.979E-02  0.979E-02
  -6.205  0.558E-01  0.279E-01  0.279E-01
  -6.180  0.683E-01  0.342E-01  0.342E-01
  -6.155  0.163E+00  0.817E-01  0.817E-01
  -6.130  0.176E+00  0.882E-01  0.882E-01
  -6.105  0.136E+00  0.680E-01  0.680E-01
  -6.080  0.734E-01  0.367E-01  0.367E-01
  -6.055  0.105E+00  0.524E-01  0.524E-01
  -6.030  0.571E-01  0.286E-01  0.286E-01
  -6.005  0.778E-01  0.389E-01  0.389E-01
  -5.980  0.125E+00  0.624E-01  0.624E-01
  -5.955  0.748E-01  0.374E-01  0.374E-01
  -5.930  0.242E-01  0.121E-01  0.121E-01
  -5.905  0.209E-01  0.105E-01  0.105E-01
  -5.880  0.814E-01  0.407E-01  0.407E-01
  -5.855  0.182E+00  0.912E-01  0.912E-01
  -5.830  0.111E+00  0.553E-01  0.553E-01
  -5.805  0.138E+00  0.692E-01  0.692E-01
  -5.780  0.201E+00  0.100E+00  0.100E+00
  -5.755  0.783E-01  0.392E-01  0.392E-01
  -5.730  0.295E-01  0.148E-01  0.148E-01
  -5.705  0.127E+00  0.633E-01  0.633E-01
  -5.680  0.116E+00  0.581E-01  0.581E-01
  -5.655  0.185E-01  0.927E-02  0.927E-02
  -5.630  0.271E-02  0.136E-02  0.136E-02
  -5.605  0.427E-01  0.213E-01  0.213E-01
  -5.580  0.133E+00  0.664E-01  0.664E-01
  -5.555  0.136E+00  0.679E-01  0.679E-01
  -5.530  0.553E-01  0.277E-01  0.277E-01
  -5.505  0.425E-01  0.213E-01  0.213E-01
  -5.480  0.142E+00  0.708E-01  0.708E-01
  -5.455  0.862E-01  0.431E-01  0.431E-01
  -5.430  0.982E-02  0.491E-02  0.491E-02
  -5.405  0.685E-02  0.343E-02  0.343E-02
  -5.380  0.849E-01  0.424E-01  0.424E-01
  -5.355  0.157E+00  0.786E-01  0.786E-01
  -5.330  0.435E-01  0.217E-01  0.217E-01
  -5.305  0.115E-01  0.574E-02  0.574E-02
  -5.280  0.510E-01  0.255E-01  0.255E-01
  -5.255  0.434E-01  0.217E-01  0.217E-01
  -5.230  0.300E-01  0.150E-01  0.150E-01
  -5.205  0.199E-01  0.993E-02  0.993E-02
  -5.180  0.716E-01  0.358E-01  0.358E-01
  -5.155  0.104E+00  0.519E-01  0.519E-01
  -5.130  0.395E-01  0.198E-01  0.198E-01
  -5.105  0.656E-01  0.328E-01  0.328E-01
  -5.080  0.775E-01  0.387E-01  0.387E-01
  -5.055  0.219E+00  0.109E+00  0.109E+00
  -5.030  0.180E+00  0.900E-01  0.900E-01
  -5.005  0.321E-01  0.160E-01  0.160E-01
  -4.980  0.299E-01  0.149E-01  0.149E-01
  -4.955  0.121E+00  0.603E-01  0.603E-01
  -4.930  0.129E+00  0.647E-01  0.647E-01
  -4.905  0.721E-01  0.361E-01  0.361E-01
  -4.880  0.955E-01  0.478E-01  0.478E-01
  -4.855  0.288E+00  0.144E+00  0.144E+00
  -4.830  0.232E+00  0.116E+00  0.116E+00
  -4.805  0.581E-01  0.291E-01  0.291E-01
  -4.780  0.115E+00  0.575E-01  0.575E-01
  -4.755  0.863E-01  0.431E-01  0.431E-01
  -4.730  0.676E-01  0.338E-01  0.338E-01
  -4.705  0.317E-01  0.159E-01  0.159E-01
  -4.680  0.725E-02  0.362E-02  0.362E-02
  -4.655  0.675E-01  0.337E-01  0.337E-01
  -4.630  0.201E+00  0.100E+00  0.100E+00
  -4.605  0.143E+00  0.713E-01  0.713E-01
  -4.580  0.597E-01  0.299E-01  0.299E-01
  -4.555  0.199E+00  0.994E-01  0.994E-01
  -4.530  0.182E+00  0.908E-01  0.908E-01
  -4.505  0.177E+00  0.887E-01  0.887E-01
  -4.480  0.113E+00  0.564E-01  0.564E-01
  -4.455  0.166E-01  0.829E-02  0.829E-02
  -4.430  0.142E-01  0.708E-02  0.708E-02
  -4.405  0.107E+00  0.537E-01  0.537E-01
  -4.380  0.162E+00  0.811E-01  0.811E-01
  -4.355  0.175E+00  0.877E-01  0.877E-01
  -4.330  0.215E+00  0.107E+00  0.107E+00
  -4.305  0.206E+00  0.103E+00  0.103E+00
  -4.280  0.603E-01  0.301E-01  0.301E-01
  -4.255  0.148E+00  0.739E-01  0.739E-01
  -4.230  0.402E+00  0.201E+00  0.201E+00
  -4.205  0.246E+00  0.123E+00  0.123E+00
  -4.180  0.244E-01  0.122E-01  0.122E-01
  -4.155  0.354E-03  0.177E-03  0.177E-03
  -4.130  0.157E-05  0.785E-06  0.785E-06
  -4.105  0.221E-03  0.110E-03  0.110E-03
  -4.080  0.828E-02  0.414E-02  0.414E-02
  -4.055  0.657E-01  0.328E-01  0.328E-01
  -4.030  0.230E+00  0.115E+00  0.115E+00
  -4.005  0.231E+00  0.115E+00  0.115E+00
  -3.980  0.253E+00  0.127E+00  0.127E+00
  -3.955  0.355E+00  0.177E+00  0.177E+00
  -3.930  0.154E+00  0.770E-01  0.770E-01
  -3.905  0.737E-01  0.369E-01  0.369E-01
  -3.880  0.112E+00  0.560E-01  0.560E-01
  -3.855  0.149E+00  0.745E-01  0.745E-01
  -3.830  0.155E+00  0.776E-01  0.776E-01
  -3.805  0.145E+00  0.726E-01  0.726E-01
  -3.780  0.154E+00  0.770E-01  0.770E-01
  -3.755  0.123E+00  0.614E-01  0.614E-01
  -3.730  0.153E+00  0.765E-01  0.765E-01
  -3.705  0.240E+00  0.120E+00  0.120E+00
  -3.680  0.188E+00  0.938E-01  0.938E-01
  -3.655  0.169E+00  0.845E-01  0.845E-01
  -3.630  0.112E+00  0.562E-01  0.562E-01
  -3.605  0.175E+00  0.874E-01  0.874E-01
  -3.580  0.963E-01  0.481E-01  0.481E-01
  -3.555  0.439E-01  0.219E-01  0.219E-01
  -3.530  0.651E-01  0.325E-01  0.325E-01
  -3.505  0.105E+00  0.524E-01  0.524E-01
  -3.480  0.102E+00  0.511E-01  0.511E-01
  -3.455  0.404E-01  0.202E-01  0.202E-01
  -3.430  0.973E-01  0.487E-01  0.487E-01
  -3.405  0.238E+00  0.119E+00  0.119E+00
  -3.380  0.310E+00  0.155E+00  0.155E+00
  -3.355  0.256E+00  0.128E+00  0.128E+00
  -3.330  0.139E+00  0.693E-01  0.693E-01
  -3.305  0.122E+00  0.612E-01  0.612E-01
  -3.280  0.123E+00  0.613E-01  0.613E-01
  -3.255  0.232E+00  0.116E+00  0.116E+00
  -3.230  0.225E+00  0.112E+00  0.112E+00
  -3.205  0.879E-01  0.440E-01  0.440E-01
  -3.180  0.962E-02  0.481E-02  0.481E-02
  -3.155  0.326E-01  0.163E-01  0.163E-01
  -3.130  0.134E+00  0.671E-01  0.671E-01
  -3.105  0.120E+00  0.602E-01  0.602E-01
  -3.080  0.550E-01  0.275E-01  0.275E-01
  -3.055  0.758E-01  0.379E-01  0.379E-01
  -3.030  0.122E+00  0.611E-01  0.611E-01
  -3.005  0.861E-01  0.431E-01  0.431E-01
  -2.980  0.409E-01  0.205E-01  0.205E-01
  -2.955  0.940E-01  0.470E-01  0.470E-01
  -2.930  0.692E-01  0.346E-01  0.346E-01
  -2.905  0.535E-01  0.267E-01  0.267E-01
  -2.880  0.473E-01  0.237E-01  0.237E-01
  -2.855  0.222E+00  0.111E+00  0.111E+00
  -2.830  0.263E+00  0.132E+00  0.132E+00
  -2.805  0.235E+00  0.117E+00  0.117E+00
  -2.780  0.144E+00  0.721E-01  0.721E-01
  -2.755  0.192E-01  0.959E-02  0.959E-02
  -2.730  0.626E-01  0.313E-01  0.313E-01
  -2.705  0.110E+00  0.550E-01  0.550E-01
  -2.680  0.656E-01  0.328E-01  0.328E-01
  -2.655  0.496E-01  0.248E-01  0.248E-01
  -2.630  0.522E-01  0.261E-01  0.261E-01
  -2.605  0.690E-01  0.345E-01  0.345E-01
  -2.580  0.695E-01  0.347E-01  0.347E-01
  -2.555  0.231E+00  0.115E+00  0.115E+00
  -2.530  0.240E+00  0.120E+00  0.120E+00
  -2.505  0.134E+00  0.672E-01  0.672E-01
  -2.480  0.125E+00  0.626E-01  0.626E-01
  -2.455  0.999E-01  0.499E-01  0.499E-01
  -2.430  0.175E+00  0.874E-01  0.874E-01
  -2.405  0.185E+00  0.923E-01  0.923E-01
  -2.380  0.170E+00  0.850E-01  0.850E-01
  -2.355  0.841E-01  0.420E-01  0.420E-01
  -2.330  0.192E+00  0.958E-01  0.958E-01
  -2.305  0.159E+00  0.796E-01  0.796E-01
  -2.280  0.763E-01  0.382E-01  0.382E-01
  -2.255  0.950E-01  0.475E-01  0.475E-01
  -2.230  0.127E+00  0.635E-01  0.635E-01
  -2.205  0.361E-01  0.180E-01  0.180E-01
  -2.180  0.205E-01  0.102E-01  0.102E-01
  -2.155  0.169E+00  0.845E-01  0.845E-01
  -2.130  0.384E+00  0.192E+00  0.192E+00
  -2.105  0.234E+00  0.117E+00  0.117E+00
  -2.080  0.332E-01  0.166E-01  0.166E-01
  -2.055  0.429E-01  0.214E-01  0.214E-01
  -2.030  0.304E-01  0.152E-01  0.152E-01
  -2.005  0.294E-02  0.147E-02  0.147E-02
  -1.980  0.256E-03  0.128E-03  0.128E-03
  -1.955  0.300E-02  0.150E-02  0.150E-02
  -1.930  0.565E-02  0.283E-02  0.283E-02
  -1.905  0.650E-02  0.325E-02  0.325E-02
  -1.880  0.714E-01  0.357E-01  0.357E-01
  -1.855  0.150E+00  0.748E-01  0.748E-01
  -1.830  0.460E-01  0.230E-01  0.230E-01
  -1.805  0.248E-02  0.124E-02  0.124E-02
  -1.780  0.154E-01  0.770E-02  0.770E-02
  -1.755  0.827E-01  0.414E-01  0.414E-01
  -1.730  0.106E+00  0.530E-01  0.530E-01
  -1.705  0.167E+00  0.833E-01  0.833E-01
  -1.680  0.747E-01  0.373E-01  0.373E-01
  -1.655  0.477E-02  0.239E-02  0.239E-02
  -1.630  0.446E-04  0.223E-04  0.223E-04
  -1.605  0.314E-03  0.157E-03  0.157E-03
  -1.580  0.499E-02  0.250E-02  0.250E-02
  -1.555  0.154E-01  0.770E-02  0.770E-02
  -1.530  0.844E-01  0.422E-01  0.422E-01
  -1.505  0.194E+00  0.969E-01  0.969E-01
  -1.480  0.113E+00  0.563E-01  0.563E-01
  -1.455  0.122E+00  0.608E-01  0.608E-01
  -1.430  0.133E+00  0.664E-01  0.664E-01
  -1.405  0.120E+00  0.600E-01  0.600E-01
  -1.380  0.441E-01  0.220E-01  0.220E-01
  -1.355  0.700E-01  0.350E-01  0.350E-01
  -1.330  0.137E+00  0.685E-01  0.685E-01
  -1.305  0.100E+00  0.502E-01  0.502E-01
  -1.280  0.123E+00  0.614E-01  0.614E-01
  -1.255  0.140E+00  0.700E-01  0.700E-01
  -1.230  0.121E+00  0.603E-01  0.603E-01
  -1.205  0.107E+00  0.536E-01  0.536E-01
  -1.180  0.199E-01  0.993E-02  0.993E-02
  -1.155  0.101E-02  0.507E-03  0.507E-03
  -1.130  0.813E-02  0.406E-02  0.406E-02
  -1.105  0.235E-01  0.117E-01  0.117E-01
  -1.080  0.144E-01  0.718E-02  0.718E-02
  -1.055  0.546E-01  0.273E-01  0.273E-01
  -1.030  0.796E-01  0.398E-01  0.398E-01
  -1.005  0.541E-01  0.271E-01  0.271E-01
  -0.980  0.102E+00  0.509E-01  0.509E-01
  -0.955  0.124E+00  0.621E-01  0.621E-01
  -0.930  0.859E-01  0.429E-01  0.429E-01
  -0.905  0.448E-01  0.224E-01  0.224E-01
  -0.880  0.736E-01  0.368E-01  0.368E-01
  -0.855  0.951E-01  0.475E-01  0.475E-01
  -0.830  0.417E-01  0.209E-01  0.209E-01
  -0.805  0.771E-01  0.385E-01  0.385E-01
  -0.780  0.115E+00  0.576E-01  0.576E-01
  -0.755  0.814E-01  0.407E-01  0.407E-01
  -0.730  0.660E-01  0.330E-01  0.330E-01
  -0.705  0.192E-01  0.962E-02  0.962E-02
  -0.680  0.651E-01  0.326E-01  0.326E-01
  -0.655  0.144E+00  0.722E-01  0.722E-01
  -0.630  0.947E-01  0.473E-01  0.473E-01
  -0.605  0.650E-01  0.325E-01  0.325E-01
  -0.580  0.728E-01  0.364E-01  0.364E-01
  -0.555  0.278E-01  0.139E-01  0.139E-01
  -0.530  0.232E-01  0.116E-01  0.116E-01
  -0.505  0.108E+00  0.538E-01  0.538E-01
  -0.480  0.163E+00  0.813E-01  0.813E-01
  -0.455  0.130E+00  0.651E-01  0.651E-01
  -0.430  0.120E+00  0.600E-01  0.600E-01
  -0.405  0.757E-01  0.378E-01  0.378E-01
  -0.380  0.174E-01  0.871E-02  0.871E-02
  -0.355  0.180E-01  0.902E-02  0.902E-02
  -0.330  0.886E-01  0.443E-01  0.443E-01
  -0.305  0.111E+00  0.555E-01  0.555E-01
  -0.280  0.340E-01  0.170E-01  0.170E-01
  -0.255  0.608E-01  0.304E-01  0.304E-01
  -0.230  0.135E+00  0.676E-01  0.676E-01
  -0.205  0.928E-01  0.464E-01  0.464E-01
  -0.180  0.341E-01  0.170E-01  0.170E-01
  -0.155  0.740E-01  0.370E-01  0.370E-01
  -0.130  0.954E-01  0.477E-01  0.477E-01
  -0.105  0.930E-01  0.465E-01  0.465E-01
  -0.080  0.455E-01  0.227E-01  0.227E-01
  -0.055  0.138E-01  0.688E-02  0.688E-02
  -0.030  0.372E-01  0.186E-01  0.186E-01
  -0.005  0.605E-01  0.303E-01  0.303E-01
   0.020  0.777E-01  0.389E-01  0.389E-01
   0.045  0.127E+00  0.637E-01  0.637E-01
   0.070  0.981E-01  0.491E-01  0.491E-01
   0.095  0.107E+00  0.536E-01  0.536E-01
   0.120  0.702E-01  0.351E-01  0.351E-01
   0.145  0.831E-01  0.415E-01  0.415E-01
   0.170  0.714E-01  0.357E-01  0.357E-01
   0.195  0.480E-01  0.240E-01  0.240E-01
   0.220  0.215E-01  0.107E-01  0.107E-01
   0.245  0.665E-01  0.332E-01  0.332E-01
   0.270  0.968E-01  0.484E-01  0.484E-01
   0.295  0.313E-01  0.157E-01  0.157E-01
   0.320  0.364E-02  0.182E-02  0.182E-02
   0.345  0.201E-01  0.100E-01  0.100E-01
   0.370  0.890E-01  0.445E-01  0.445E-01
   0.395  0.681E-01  0.340E-01  0.340E-01
   0.420  0.612E-01  0.306E-01  0.306E-01
   0.445  0.131E+00  0.654E-01  0.654E-01
   0.470  0.868E-01  0.434E-01  0.434E-01
   0.495  0.204E-01  0.102E-01  0.102E-01
   0.520  0.459E-01  0.230E-01  0.230E-01
   0.545  0.628E-01  0.314E-01  0.314E-01
   0.570  0.360E-01  0.180E-01  0.180E-01
   0.595  0.118E-01  0.590E-02  0.590E-02
   0.620  0.443E-01  0.221E-01  0.221E-01
   0.645  0.471E-01  0.235E-01  0.235E-01
   0.670  0.671E-01  0.336E-01  0.336E-01
   0.695  0.926E-01  0.463E-01  0.463E-01
   0.720  0.101E+00  0.504E-01  0.504E-01
   0.745  0.903E-01  0.451E-01  0.451E-01
   0.770  0.443E-01  0.222E-01  0.222E-01
   0.795  0.753E-01  0.376E-01  0.376E-01
   0.820  0.698E-01  0.349E-01  0.349E-01
   0.845  0.232E-01  0.116E-01  0.116E-01
   0.870  0.204E-02  0.102E-02  0.102E-02
   0.895  0.227E-02  0.113E-02  0.113E-02
   0.920  0.314E-01  0.157E-01  0.157E-01
   0.945  0.121E+00  0.604E-01  0.604E-01
   0.970  0.132E+00  0.661E-01  0.661E-01
   0.995  0.830E-01  0.415E-01  0.415E-01
   1.020  0.105E+00  0.527E-01  0.527E-01
   1.045  0.830E-01  0.415E-01  0.415E-01
   1.070  0.204E-01  0.102E-01  0.102E-01
   1.095  0.366E-01  0.183E-01  0.183E-01
   1.120  0.668E-01  0.334E-01  0.334E-01
   1.145  0.202E-01  0.101E-01  0.101E-01
   1.170  0.245E-01  0.122E-01  0.122E-01
   1.195  0.631E-01  0.315E-01  0.315E-01
   1.220  0.430E-01  0.215E-01  0.215E-01
   1.245  0.546E-01  0.273E-01  0.273E-01
   1.270  0.974E-01  0.487E-01  0.487E-01
   1.295  0.133E+00  0.663E-01  0.663E-01
   1.320  0.694E-01  0.347E-01  0.347E-01
   1.345  0.660E-01  0.330E-01  0.330E-01
   1.370  0.349E-01  0.175E-01  0.175E-01
   1.395  0.272E-01  0.136E-01  0.136E-01
   1.420  0.277E-01  0.139E-01  0.139E-01
   1.445  0.197E-01  0.987E-02  0.987E-02
   1.470  0.381E-01  0.191E-01  0.191E-01
   1.495  0.448E-01  0.224E-01  0.224E-01
   1.520  0.344E-01  0.172E-01  0.172E-01
   1.545  0.202E-01  0.101E-01  0.101E-01
   1.570  0.507E-01  0.253E-01  0.253E-01
   1.595  0.435E-01  0.217E-01  0.217E-01
   1.620  0.391E-01  0.196E-01  0.196E-01
   1.645  0.543E-01  0.271E-01  0.271E-01
   1.670  0.570E-01  0.285E-01  0.285E-01
   1.695  0.386E-01  0.193E-01  0.193E-01
   1.720  0.210E-01  0.105E-01  0.105E-01
   1.745  0.438E-02  0.219E-02  0.219E-02
   1.770  0.225E-02  0.112E-02  0.112E-02
   1.795  0.615E-02  0.308E-02  0.308E-02
   1.820  0.369E-01  0.185E-01  0.185E-01
   1.845  0.408E-01  0.204E-01  0.204E-01
   1.870  0.114E-01  0.569E-02  0.569E-02
   1.895  0.404E-01  0.202E-01  0.202E-01
   1.920  0.924E-01  0.462E-01  0.462E-01
   1.945  0.122E+00  0.608E-01  0.608E-01
   1.970  0.943E-01  0.471E-01  0.471E-01
   1.995  0.406E-01  0.203E-01  0.203E-01
   2.020  0.274E-01  0.137E-01  0.137E-01
   2.045  0.200E-01  0.100E-01  0.100E-01
   2.070  0.195E-01  0.974E-02  0.974E-02
   2.095  0.525E-02  0.262E-02  0.262E-02
   2.120  0.472E-03  0.236E-03  0.236E-03
   2.145  0.827E-03  0.413E-03  0.413E-03
   2.170  0.370E-02  0.185E-02  0.185E-02
   2.195  0.205E-01  0.102E-01  0.102E-01
   2.220  0.690E-01  0.345E-01  0.345E-01
   2.245  0.706E-01  0.353E-01  0.353E-01
   2.270  0.666E-01  0.333E-01  0.333E-01
   2.295  0.487E-01  0.243E-01  0.243E-01
   2.320  0.583E-01  0.292E-01  0.292E-01
   2.345  0.422E-01  0.211E-01  0.211E-01
   2.370  0.916E-02  0.458E-02  0.458E-02
   2.395  0.126E-01  0.631E-02  0.631E-02
   2.420  0.201E-01  0.100E-01  0.100E-01
   2.445  0.885E-02  0.443E-02  0.443E-02
   2.470  0.242E-01  0.121E-01  0.121E-01
   2.495  0.383E-01  0.192E-01  0.192E-01
   2.520  0.362E-01  0.181E-01  0.181E-01
   2.545  0.284E-01  0.142E-01  0.142E-01
   2.570  0.174E-01  0.872E-02  0.872E-02
   2.595  0.259E-01  0.129E-01  0.129E-01
   2.620  0.926E-02  0.463E-02  0.463E-02
   2.645  0.868E-02  0.434E-02  0.434E-02
   2.670  0.340E-01  0.170E-01  0.170E-01
   2.695  0.238E-01  0.119E-01  0.119E-01
   2.720  0.408E-02  0.204E-02  0.204E-02
   2.745  0.566E-02  0.283E-02  0.283E-02
   2.770  0.839E-02  0.419E-02  0.419E-02
   2.795  0.127E-01  0.634E-02  0.634E-02
   2.820  0.331E-01  0.165E-01  0.165E-01
   2.845  0.340E-01  0.170E-01  0.170E-01
   2.870  0.315E-01  0.157E-01  0.157E-01
   2.895  0.486E-01  0.243E-01  0.243E-01
   2.920  0.375E-01  0.188E-01  0.188E-01
   2.945  0.331E-01  0.165E-01  0.165E-01
   2.970  0.243E-01  0.121E-01  0.121E-01
   2.995  0.199E-01  0.997E-02  0.997E-02
   3.020  0.988E-02  0.494E-02  0.494E-02
   3.045  0.683E-02  0.341E-02  0.341E-02
   3.070  0.237E-01  0.118E-01  0.118E-01
   3.095  0.220E-01  0.110E-01  0.110E-01
   3.120  0.203E-01  0.102E-01  0.102E-01
   3.145  0.110E-01  0.551E-02  0.551E-02
   3.170  0.483E-02  0.242E-02  0.242E-02
   3.195  0.287E-02  0.144E-02  0.144E-02
   3.220  0.898E-02  0.449E-02  0.449E-02
   3.245  0.102E-01  0.508E-02  0.508E-02
   3.270  0.123E-01  0.615E-02  0.615E-02
   3.295  0.159E-01  0.795E-02  0.795E-02
   3.320  0.487E-02  0.243E-02  0.243E-02
   3.345  0.998E-03  0.499E-03  0.499E-03
   3.370  0.949E-03  0.474E-03  0.474E-03
   3.395  0.173E-03  0.863E-04  0.863E-04
   3.420  0.350E-04  0.175E-04  0.175E-04
   3.445  0.673E-03  0.336E-03  0.336E-03
   3.470  0.916E-02  0.458E-02  0.458E-02
   3.495  0.203E-01  0.102E-01  0.102E-01
   3.520  0.219E-01  0.109E-01  0.109E-01
   3.545  0.247E-01  0.123E-01  0.123E-01
   3.570  0.132E-01  0.659E-02  0.659E-02
   3.595  0.148E-01  0.738E-02  0.738E-02
   3.620  0.868E-02  0.434E-02  0.434E-02
   3.645  0.217E-02  0.109E-02  0.109E-02
   3.670  0.228E-02  0.114E-02  0.114E-02
   3.695  0.143E-01  0.715E-02  0.715E-02
   3.720  0.203E-01  0.102E-01  0.102E-01
   3.745  0.156E-01  0.778E-02  0.778E-02
   3.770  0.147E-01  0.734E-02  0.734E-02
   3.795  0.990E-02  0.495E-02  0.495E-02
   3.820  0.497E-02  0.248E-02  0.248E-02
   3.845  0.529E-02  0.265E-02  0.265E-02
   3.870  0.125E-02  0.627E-03  0.627E-03
   3.895  0.663E-03  0.331E-03  0.331E-03
   3.920  0.112E-02  0.562E-03  0.562E-03
   3.945  0.248E-02  0.124E-02  0.124E-02
   3.970  0.278E-02  0.139E-02  0.139E-02
   3.995  0.367E-02  0.184E-02  0.184E-02
   4.020  0.298E-02  0.149E-02  0.149E-02
   4.045  0.420E-02  0.210E-02  0.210E-02
   4.070  0.133E-02  0.665E-03  0.665E-03
   4.095  0.579E-04  0.289E-04  0.289E-04
   4.120  0.948E-05  0.474E-05  0.474E-05
   4.145  0.293E-03  0.147E-03  0.147E-03
   4.170  0.158E-02  0.791E-03  0.791E-03
   4.195  0.394E-02  0.197E-02  0.197E-02
   4.220  0.517E-02  0.258E-02  0.258E-02
   4.245  0.616E-02  0.308E-02  0.308E-02
   4.270  0.499E-02  0.249E-02  0.249E-02
   4.295  0.769E-03  0.384E-03  0.384E-03
   4.320  0.135E-02  0.675E-03  0.675E-03
   4.345  0.351E-02  0.176E-02  0.176E-02
   4.370  0.140E-02  0.700E-03  0.700E-03
   4.395  0.891E-04  0.446E-04  0.446E-04
   4.420  0.562E-03  0.281E-03  0.281E-03
   4.445  0.429E-02  0.215E-02  0.215E-02
   4.470  0.590E-02  0.295E-02  0.295E-02
   4.495  0.171E-02  0.855E-03  0.855E-03
   4.520  0.860E-03  0.430E-03  0.430E-03
   4.545  0.454E-03  0.227E-03  0.227E-03
   4.570  0.357E-04  0.179E-04  0.179E-04
   4.595  0.382E-06  0.191E-06  0.191E-06
   4.620  0.234E-06  0.117E-06  0.117E-06
   4.645  0.220E-04  0.110E-04  0.110E-04
   4.670  0.281E-03  0.140E-03  0.140E-03
   4.695  0.485E-03  0.243E-03  0.243E-03
   4.720  0.114E-03  0.569E-04  0.569E-04
   4.745  0.593E-05  0.296E-05  0.296E-05
   4.770  0.301E-05  0.151E-05  0.151E-05
   4.795  0.520E-06  0.260E-06  0.260E-06
   4.820  0.122E-07  0.612E-08  0.612E-08
   4.845  0.835E-10  0.418E-10  0.418E-10
   4.870  0.829E-10  0.414E-10  0.414E-10
   4.895  0.244E-10  0.122E-10  0.122E-10
   4.920  0.972E-12  0.486E-12  0.486E-12
   4.945  0.524E-14  0.262E-14  0.262E-14
   4.970  0.383E-17  0.192E-17  0.192E-17
   4.995  0.379E-21  0.189E-21  0.189E-21
   5.020  0.507E-26  0.253E-26  0.253E-26
   5.045  0.000E+00  0.000E+00  0.000E+00
   5.070  0.000E+00  0.000E+00  0.000E+00
   5.095  0.000E+00  0.000E+00  0.000E+00
   5.120  0.000E+00  0.000E+00  0.000E+00
   5.145  0.000E+00  0.000E+00  0.000E+00
   5.170  0.000E+00  0.000E+00  0.000E+00
   5.195  0.000E+00  0.000E+00  0.000E+00
   5.220  0.000E+00  0.000E+00  0.000E+00
   5.245  0.000E+00  0.000E+00  0.000E+00
   5.270  0.000E+00  0.000E+00  0.000E+00
   5.295  0.000E+00  0.000E+00  0.000E+00
   5.320  0.000E+00  0.000E+00  0.000E+00
   5.345  0.000E+00  0.000E+00  0.000E+00
   5.370  0.000E+00  0.000E+00  0.000E+00
   5.395  0.000E+00  0.000E+00  0.000E+00
   5.420  0.000E+00  0.000E+00  0.000E+00
   5.445  0.000E+00  0.000E+00  0.000E+00
   5.470  0.000E+00  0.000E+00  0.000E+00
   5.495  0.000E+00  0.000E+00  0.000E+00
   5.520  0.000E+00  0.000E+00  0.000E+00
   5.545  0.000E+00  0.000E+00  0.000E+00
   5.570  0.000E+00  0.000E+00  0.000E+00
   5.595  0.000E+00  0.000E+00  0.000E+00
   5.620  0.000E+00  0.000E+00  0.000E+00
   5.645  0.000E+00  0.000E+00  0.000E+00
   5.670  0.294E-19  0.147E-19  0.147E-19
   5.695  0.416E-14  0.208E-14  0.208E-14
   5.720  0.797E-10  0.398E-10  0.398E-10
   5.745  0.207E-06  0.103E-06  0.103E-06
   5.770  0.726E-04  0.363E-04  0.363E-04
   5.795  0.346E-02  0.173E-02  0.173E-02
   5.820  0.232E-01  0.116E-01  0.116E-01
   5.845  0.288E-01  0.144E-01  0.144E-01
   5.870  0.252E-01  0.126E-01  0.126E-01
   5.895  0.380E-01  0.190E-01  0.190E-01
   5.920  0.305E-01  0.152E-01  0.152E-01
   5.945  0.272E-01  0.136E-01  0.136E-01
   5.970  0.896E-02  0.448E-02  0.448E-02
   5.995  0.430E-03  0.215E-03  0.215E-03
   6.020  0.280E-05  0.140E-05  0.140E-05
   6.045  0.247E-08  0.123E-08  0.123E-08
   6.070  0.136E-07  0.679E-08  0.679E-08
   6.095  0.111E-04  0.556E-05  0.556E-05
   6.120  0.123E-02  0.615E-03  0.615E-03
   6.145  0.184E-01  0.922E-02  0.922E-02
   6.170  0.375E-01  0.187E-01  0.187E-01
   6.195  0.134E-01  0.669E-02  0.669E-02
   6.220  0.286E-01  0.143E-01  0.143E-01
   6.245  0.693E-01  0.346E-01  0.346E-01
   6.270  0.943E-01  0.472E-01  0.472E-01
   6.295  0.924E-01  0.462E-01  0.462E-01
   6.320  0.139E+00  0.695E-01  0.695E-01
   6.345  0.799E-01  0.399E-01  0.399E-01
   6.370  0.582E-01  0.291E-01  0.291E-01
   6.395  0.109E+00  0.547E-01  0.547E-01
   6.420  0.110E+00  0.552E-01  0.552E-01
   6.445  0.435E-01  0.217E-01  0.217E-01
   6.470  0.351E-02  0.175E-02  0.175E-02
   6.495  0.205E-01  0.103E-01  0.103E-01
   6.520  0.129E+00  0.645E-01  0.645E-01
   6.545  0.230E+00  0.115E+00  0.115E+00
   6.570  0.104E+00  0.520E-01  0.520E-01
   6.595  0.518E-01  0.259E-01  0.259E-01
   6.620  0.186E-01  0.932E-02  0.932E-02
   6.645  0.183E-01  0.916E-02  0.916E-02
   6.670  0.954E-01  0.477E-01  0.477E-01
   6.695  0.125E+00  0.627E-01  0.627E-01
   6.720  0.458E-01  0.229E-01  0.229E-01
   6.745  0.928E-01  0.464E-01  0.464E-01
   6.770  0.128E+00  0.640E-01  0.640E-01
   6.795  0.103E+00  0.514E-01  0.514E-01
   6.820  0.689E-01  0.345E-01  0.345E-01
   6.845  0.171E-01  0.857E-02  0.857E-02
   6.870  0.343E-01  0.171E-01  0.171E-01
   6.895  0.972E-01  0.486E-01  0.486E-01
   6.920  0.142E+00  0.711E-01  0.711E-01
   6.945  0.127E+00  0.635E-01  0.635E-01
   6.970  0.452E-01  0.226E-01  0.226E-01
   6.995  0.354E-01  0.177E-01  0.177E-01
   7.020  0.392E-01  0.196E-01  0.196E-01
   7.045  0.185E-01  0.927E-02  0.927E-02
   7.070  0.455E-01  0.227E-01  0.227E-01
   7.095  0.171E+00  0.855E-01  0.855E-01
   7.120  0.169E+00  0.846E-01  0.846E-01
   7.145  0.713E-01  0.356E-01  0.356E-01
   7.170  0.115E+00  0.577E-01  0.577E-01
   7.195  0.977E-01  0.488E-01  0.488E-01
   7.220  0.123E+00  0.614E-01  0.614E-01
   7.245  0.188E+00  0.940E-01  0.940E-01
   7.270  0.308E+00  0.154E+00  0.154E+00
   7.295  0.339E+00  0.170E+00  0.170E+00
   7.320  0.124E+00  0.621E-01  0.621E-01
   7.345  0.235E-01  0.117E-01  0.117E-01
   7.370  0.678E-01  0.339E-01  0.339E-01
   7.395  0.213E+00  0.107E+00  0.107E+00
   7.420  0.421E+00  0.211E+00  0.211E+00
   7.445  0.288E+00  0.144E+00  0.144E+00
   7.470  0.113E+00  0.566E-01  0.566E-01
   7.495  0.153E-01  0.764E-02  0.764E-02
   7.520  0.355E-01  0.178E-01  0.178E-01
   7.545  0.594E-01  0.297E-01  0.297E-01
   7.570  0.109E+00  0.543E-01  0.543E-01
   7.595  0.174E+00  0.871E-01  0.871E-01
   7.620  0.164E+00  0.821E-01  0.821E-01
   7.645  0.907E-01  0.454E-01  0.454E-01
   7.670  0.572E-01  0.286E-01  0.286E-01
   7.695  0.108E+00  0.539E-01  0.539E-01
   7.720  0.164E+00  0.819E-01  0.819E-01
   7.745  0.850E-01  0.425E-01  0.425E-01
   7.770  0.107E+00  0.537E-01  0.537E-01
   7.795  0.766E-01  0.383E-01  0.383E-01
   7.820  0.110E+00  0.548E-01  0.548E-01
   7.845  0.119E+00  0.596E-01  0.596E-01
   7.870  0.348E-01  0.174E-01  0.174E-01
   7.895  0.150E-01  0.748E-02  0.748E-02
   7.920  0.113E+00  0.567E-01  0.567E-01
   7.945  0.188E+00  0.942E-01  0.942E-01
   7.970  0.588E-01  0.294E-01  0.294E-01
   7.995  0.183E-01  0.914E-02  0.914E-02
   8.020  0.748E-02  0.374E-02  0.374E-02
   8.045  0.203E-01  0.102E-01  0.102E-01
   8.070  0.270E-01  0.135E-01  0.135E-01
   8.095  0.457E-01  0.229E-01  0.229E-01
   8.120  0.177E-01  0.887E-02  0.887E-02
   8.145  0.949E-03  0.475E-03  0.475E-03
   8.170  0.688E-05  0.344E-05  0.344E-05
   8.195  0.675E-08  0.337E-08  0.337E-08
