# E(eV)   ldos(E)   pdos(E)_1   pdos(E)_2   
  -7.905  0.195E-05  0.977E-06  0.977E-06
  -7.880  0.345E-03  0.173E-03  0.173E-03
  -7.855  0.105E-01  0.526E-02  0.526E-02
  -7.830  0.761E-01  0.381E-01  0.381E-01
  -7.805  0.187E+00  0.935E-01  0.935E-01
  -7.780  0.162E+00  0.811E-01  0.811E-01
  -7.755  0.817E-01  0.408E-01  0.408E-01
  -7.730  0.100E+00  0.500E-01  0.500E-01
  -7.705  0.106E+00  0.529E-01  0.529E-01
  -7.680  0.530E-01  0.265E-01  0.265E-01
  -7.655  0.283E-01  0.141E-01  0.141E-01
  -7.630  0.648E-01  0.324E-01  0.324E-01
  -7.605  0.747E-01  0.373E-01  0.373E-01
  -7.580  0.679E-01  0.339E-01  0.339E-01
  -7.555  0.302E-01  0.151E-01  0.151E-01
  -7.530  0.401E-01  0.200E-01  0.200E-01
  -7.505  0.598E-01  0.299E-01  0.299E-01
  -7.480  0.703E-01  0.352E-01  0.352E-01
  -7.455  0.102E+00  0.511E-01  0.511E-01
  -7.430  0.853E-01  0.426E-01  0.426E-01
  -7.405  0.461E-01  0.231E-01  0.231E-01
  -7.380  0.159E-01  0.794E-02  0.794E-02
  -7.355  0.341E-01  0.170E-01  0.170E-01
  -7.330  0.703E-01  0.352E-01  0.352E-01
  -7.305  0.414E-01  0.207E-01  0.207E-01
  -7.280  0.206E-01  0.103E-01  0.103E-01
  -7.255  0.401E-01  0.200E-01  0.200E-01
  -7.230  0.355E-01  0.177E-01  0.177E-01
  -7.205  0.116E-01  0.580E-02  0.580E-02
  -7.180  0.412E-02  0.206E-02  0.206E-02
  -7.155  0.357E-01  0.179E-01  0.179E-01
  -7.130  0.953E-01  0.477E-01  0.477E-01
  -7.105  0.607E-01  0.303E-01  0.303E-01
  -7.080  0.739E-02  0.369E-02  0.369E-02
  -7.055  0.407E-03  0.203E-03  0.203E-03
  -7.030  0.103E-01  0.516E-02  0.516E-02
  -7.005  0.664E-01  0.332E-01  0.332E-01
  -6.980  0.800E-01  0.400E-01  0.400E-01
  -6.955  0.364E-01  0.182E-01  0.182E-01
  -6.930  0.699E-01  0.350E-01  0.350E-01
  -6.905  0.867E-01  0.433E-01  0.433E-01
  -6.880  0.677E-01  0.338E-01  0.338E-01
  -6.855  0.222E-01  0.111E-01  0.111E-01
  -6.830  0.211E-01  0.106E-01  0.106E-01
  -6.805  0.209E-01  0.104E-01  0.104E-01
  -6.780  0.101E-01  0.503E-02  0.503E-02
  -6.755  0.343E-01  0.171E-01  0.171E-01
  -6.730  0.415E-01  0.208E-01  0.208E-01
  -6.705  0.396E-01  0.198E-01  0.198E-01
  -6.680  0.940E-01  0.470E-01  0.470E-01
  -6.655  0.432E-01  0.216E-01  0.216E-01
  -6.630  0.244E-01  0.122E-01  0.122E-01
  -6.605  0.331E-01  0.166E-01  0.166E-01
  -6.580  0.323E-01  0.161E-01  0.161E-01
  -6.555  0.300E-01  0.150E-01  0.150E-01
  -6.530  0.245E-01  0.123E-01  0.123E-01
  -6.505  0.411E-01  0.205E-01  0.205E-01
  -6.480  0.470E-01  0.235E-01  0.235E-01
  -6.455  0.592E-01  0.296E-01  0.296E-01
  -6.430  0.615E-01  0.308E-01  0.308E-01
  -6.405  0.775E-01  0.387E-01  0.387E-01
  -6.380  0.173E-01  0.865E-02  0.865E-02
  -6.355  0.709E-03  0.355E-03  0.355E-03
  -6.330  0.151E-02  0.753E-03  0.753E-03
  -6.305  0.254E-01  0.127E-01  0.127E-01
  -6.280  0.790E-01  0.395E-01  0.395E-01
  -6.255  0.449E-01  0.225E-01  0.225E-01
  -6.230  0.441E-02  0.220E-02  0.220E-02
  -6.205  0.173E-02  0.864E-03  0.864E-03
  -6.180  0.183E-01  0.914E-02  0.914E-02
  -6.155  0.709E-01  0.354E-01  0.354E-01
  -6.130  0.684E-01  0.342E-01  0.342E-01
  -6.105  0.501E-01  0.251E-01  0.251E-01
  -6.080  0.308E-01  0.154E-01  0.154E-01
  -6.055  0.439E-01  0.219E-01  0.219E-01
  -6.030  0.234E-01  0.117E-01  0.117E-01
  -6.005  0.317E-01  0.158E-01  0.158E-01
  -5.980  0.542E-01  0.271E-01  0.271E-01
  -5.955  0.253E-01  0.127E-01  0.127E-01
  -5.930  0.466E-02  0.233E-02  0.233E-02
  -5.905  0.896E-02  0.448E-02  0.448E-02
  -5.880  0.508E-01  0.254E-01  0.254E-01
  -5.855  0.108E+00  0.540E-01  0.540E-01
  -5.830  0.644E-01  0.322E-01  0.322E-01
  -5.805  0.786E-01  0.393E-01  0.393E-01
  -5.780  0.137E+00  0.685E-01  0.685E-01
  -5.755  0.525E-01  0.262E-01  0.262E-01
  -5.730  0.131E-01  0.654E-02  0.654E-02
  -5.705  0.509E-01  0.255E-01  0.255E-01
  -5.680  0.453E-01  0.227E-01  0.227E-01
  -5.655  0.700E-02  0.350E-02  0.350E-02
  -5.630  0.824E-03  0.412E-03  0.412E-03
  -5.605  0.145E-01  0.725E-02  0.725E-02
  -5.580  0.537E-01  0.269E-01  0.269E-01
  -5.555  0.607E-01  0.304E-01  0.304E-01
  -5.530  0.245E-01  0.122E-01  0.122E-01
  -5.505  0.252E-01  0.126E-01  0.126E-01
  -5.480  0.782E-01  0.391E-01  0.391E-01
  -5.455  0.416E-01  0.208E-01  0.208E-01
  -5.430  0.413E-02  0.207E-02  0.207E-02
  -5.405  0.251E-02  0.125E-02  0.125E-02
  -5.380  0.311E-01  0.155E-01  0.155E-01
  -5.355  0.577E-01  0.289E-01  0.289E-01
  -5.330  0.160E-01  0.799E-02  0.799E-02
  -5.305  0.346E-02  0.173E-02  0.173E-02
  -5.280  0.173E-01  0.865E-02  0.865E-02
  -5.255  0.170E-01  0.852E-02  0.852E-02
  -5.230  0.114E-01  0.572E-02  0.572E-02
  -5.205  0.672E-02  0.336E-02  0.336E-02
  -5.180  0.230E-01  0.115E-01  0.115E-01
  -5.155  0.393E-01  0.196E-01  0.196E-01
  -5.130  0.262E-01  0.131E-01  0.131E-01
  -5.105  0.577E-01  0.288E-01  0.288E-01
  -5.080  0.433E-01  0.217E-01  0.217E-01
  -5.055  0.847E-01  0.424E-01  0.424E-01
  -5.030  0.699E-01  0.349E-01  0.349E-01
  -5.005  0.122E-01  0.611E-02  0.611E-02
  -4.980  0.106E-01  0.531E-02  0.531E-02
  -4.955  0.437E-01  0.219E-01  0.219E-01
  -4.930  0.478E-01  0.239E-01  0.239E-01
  -4.905  0.255E-01  0.127E-01  0.127E-01
  -4.880  0.317E-01  0.159E-01  0.159E-01
  -4.855  0.103E+00  0.514E-01  0.514E-01
  -4.830  0.899E-01  0.450E-01  0.450E-01
  -4.805  0.232E-01  0.116E-01  0.116E-01
  -4.780  0.506E-01  0.253E-01  0.253E-01
  -4.755  0.566E-01  0.283E-01  0.283E-01
  -4.730  0.353E-01  0.177E-01  0.177E-01
  -4.705  0.116E-01  0.580E-02  0.580E-02
  -4.680  0.137E-02  0.683E-03  0.683E-03
  -4.655  0.960E-02  0.480E-02  0.480E-02
  -4.630  0.415E-01  0.207E-01  0.207E-01
  -4.605  0.398E-01  0.199E-01  0.199E-01
  -4.580  0.138E-01  0.689E-02  0.689E-02
  -4.555  0.397E-01  0.199E-01  0.199E-01
  -4.530  0.438E-01  0.219E-01  0.219E-01
  -4.505  0.500E-01  0.250E-01  0.250E-01
  -4.480  0.255E-01  0.127E-01  0.127E-01
  -4.455  0.305E-02  0.152E-02  0.152E-02
  -4.430  0.336E-02  0.168E-02  0.168E-02
  -4.405  0.257E-01  0.128E-01  0.128E-01
  -4.380  0.399E-01  0.200E-01  0.200E-01
  -4.355  0.502E-01  0.251E-01  0.251E-01
  -4.330  0.599E-01  0.300E-01  0.300E-01
  -4.305  0.574E-01  0.287E-01  0.287E-01
  -4.280  0.167E-01  0.835E-02  0.835E-02
  -4.255  0.366E-01  0.183E-01  0.183E-01
  -4.230  0.975E-01  0.488E-01  0.488E-01
  -4.205  0.616E-01  0.308E-01  0.308E-01
  -4.180  0.625E-02  0.312E-02  0.312E-02
  -4.155  0.913E-04  0.457E-04  0.457E-04
  -4.130  0.506E-06  0.253E-06  0.253E-06
  -4.105  0.841E-04  0.420E-04  0.420E-04
  -4.080  0.311E-02  0.155E-02  0.155E-02
  -4.055  0.219E-01  0.109E-01  0.109E-01
  -4.030  0.643E-01  0.321E-01  0.321E-01
  -4.005  0.626E-01  0.313E-01  0.313E-01
  -3.980  0.790E-01  0.395E-01  0.395E-01
  -3.955  0.127E+00  0.637E-01  0.637E-01
  -3.930  0.733E-01  0.367E-01  0.367E-01
  -3.905  0.312E-01  0.156E-01  0.156E-01
  -3.880  0.407E-01  0.203E-01  0.203E-01
  -3.855  0.469E-01  0.235E-01  0.235E-01
  -3.830  0.478E-01  0.239E-01  0.239E-01
  -3.805  0.556E-01  0.278E-01  0.278E-01
  -3.780  0.671E-01  0.336E-01  0.336E-01
  -3.755  0.419E-01  0.210E-01  0.210E-01
  -3.730  0.573E-01  0.286E-01  0.286E-01
  -3.705  0.980E-01  0.490E-01  0.490E-01
  -3.680  0.686E-01  0.343E-01  0.343E-01
  -3.655  0.759E-01  0.380E-01  0.380E-01
  -3.630  0.475E-01  0.238E-01  0.238E-01
  -3.605  0.502E-01  0.251E-01  0.251E-01
  -3.580  0.257E-01  0.128E-01  0.128E-01
  -3.555  0.161E-01  0.805E-02  0.805E-02
  -3.530  0.264E-01  0.132E-01  0.132E-01
  -3.505  0.514E-01  0.257E-01  0.257E-01
  -3.480  0.609E-01  0.305E-01  0.305E-01
  -3.455  0.193E-01  0.966E-02  0.966E-02
  -3.430  0.336E-01  0.168E-01  0.168E-01
  -3.405  0.940E-01  0.470E-01  0.470E-01
  -3.380  0.130E+00  0.652E-01  0.652E-01
  -3.355  0.116E+00  0.580E-01  0.580E-01
  -3.330  0.644E-01  0.322E-01  0.322E-01
  -3.305  0.454E-01  0.227E-01  0.227E-01
  -3.280  0.508E-01  0.254E-01  0.254E-01
  -3.255  0.109E+00  0.544E-01  0.544E-01
  -3.230  0.852E-01  0.426E-01  0.426E-01
  -3.205  0.245E-01  0.123E-01  0.123E-01
  -3.180  0.273E-02  0.136E-02  0.136E-02
  -3.155  0.123E-01  0.614E-02  0.614E-02
  -3.130  0.480E-01  0.240E-01  0.240E-01
  -3.105  0.416E-01  0.208E-01  0.208E-01
  -3.080  0.224E-01  0.112E-01  0.112E-01
  -3.055  0.356E-01  0.178E-01  0.178E-01
  -3.030  0.601E-01  0.300E-01  0.300E-01
  -3.005  0.414E-01  0.207E-01  0.207E-01
  -2.980  0.202E-01  0.101E-01  0.101E-01
  -2.955  0.466E-01  0.233E-01  0.233E-01
  -2.930  0.333E-01  0.167E-01  0.167E-01
  -2.905  0.236E-01  0.118E-01  0.118E-01
  -2.880  0.208E-01  0.104E-01  0.104E-01
  -2.855  0.102E+00  0.510E-01  0.510E-01
  -2.830  0.121E+00  0.604E-01  0.604E-01
  -2.805  0.895E-01  0.448E-01  0.448E-01
  -2.780  0.533E-01  0.267E-01  0.267E-01
  -2.755  0.691E-02  0.345E-02  0.345E-02
  -2.730  0.214E-01  0.107E-01  0.107E-01
  -2.705  0.410E-01  0.205E-01  0.205E-01
  -2.680  0.253E-01  0.126E-01  0.126E-01
  -2.655  0.189E-01  0.947E-02  0.947E-02
  -2.630  0.232E-01  0.116E-01  0.116E-01
  -2.605  0.309E-01  0.155E-01  0.155E-01
  -2.580  0.289E-01  0.144E-01  0.144E-01
  -2.555  0.841E-01  0.420E-01  0.420E-01
  -2.530  0.889E-01  0.445E-01  0.445E-01
  -2.505  0.467E-01  0.234E-01  0.234E-01
  -2.480  0.424E-01  0.212E-01  0.212E-01
  -2.455  0.412E-01  0.206E-01  0.206E-01
  -2.430  0.783E-01  0.392E-01  0.392E-01
  -2.405  0.872E-01  0.436E-01  0.436E-01
  -2.380  0.777E-01  0.389E-01  0.389E-01
  -2.355  0.363E-01  0.181E-01  0.181E-01
  -2.330  0.809E-01  0.404E-01  0.404E-01
  -2.305  0.662E-01  0.331E-01  0.331E-01
  -2.280  0.284E-01  0.142E-01  0.142E-01
  -2.255  0.417E-01  0.209E-01  0.209E-01
  -2.230  0.617E-01  0.308E-01  0.308E-01
  -2.205  0.180E-01  0.900E-02  0.900E-02
  -2.180  0.959E-02  0.479E-02  0.479E-02
  -2.155  0.760E-01  0.380E-01  0.380E-01
  -2.130  0.166E+00  0.830E-01  0.830E-01
  -2.105  0.102E+00  0.508E-01  0.508E-01
  -2.080  0.151E-01  0.754E-02  0.754E-02
  -2.055  0.209E-01  0.105E-01  0.105E-01
  -2.030  0.148E-01  0.742E-02  0.742E-02
  -2.005  0.145E-02  0.724E-03  0.724E-03
  -1.980  0.141E-02  0.704E-03  0.704E-03
  -1.955  0.191E-01  0.957E-02  0.957E-02
  -1.930  0.358E-01  0.179E-01  0.179E-01
  -1.905  0.149E-01  0.744E-02  0.744E-02
  -1.880  0.593E-01  0.297E-01  0.297E-01
  -1.855  0.954E-01  0.477E-01  0.477E-01
  -1.830  0.282E-01  0.141E-01  0.141E-01
  -1.805  0.189E-01  0.947E-02  0.947E-02
  -1.780  0.220E-01  0.110E-01  0.110E-01
  -1.755  0.667E-01  0.334E-01  0.334E-01
  -1.730  0.100E+00  0.500E-01  0.500E-01
  -1.705  0.113E+00  0.563E-01  0.563E-01
  -1.680  0.433E-01  0.216E-01  0.216E-01
  -1.655  0.257E-02  0.129E-02  0.129E-02
  -1.630  0.256E-04  0.128E-04  0.128E-04
  -1.605  0.473E-03  0.236E-03  0.236E-03
  -1.580  0.805E-02  0.403E-02  0.403E-02
  -1.555  0.314E-01  0.157E-01  0.157E-01
  -1.530  0.795E-01  0.398E-01  0.398E-01
  -1.505  0.108E+00  0.541E-01  0.541E-01
  -1.480  0.561E-01  0.280E-01  0.280E-01
  -1.455  0.669E-01  0.334E-01  0.334E-01
  -1.430  0.118E+00  0.591E-01  0.591E-01
  -1.405  0.139E+00  0.696E-01  0.696E-01
  -1.380  0.109E+00  0.543E-01  0.543E-01
  -1.355  0.102E+00  0.511E-01  0.511E-01
  -1.330  0.111E+00  0.556E-01  0.556E-01
  -1.305  0.886E-01  0.443E-01  0.443E-01
  -1.280  0.744E-01  0.372E-01  0.372E-01
  -1.255  0.667E-01  0.333E-01  0.333E-01
  -1.230  0.622E-01  0.311E-01  0.311E-01
  -1.205  0.560E-01  0.280E-01  0.280E-01
  -1.180  0.104E-01  0.518E-02  0.518E-02
  -1.155  0.840E-03  0.420E-03  0.420E-03
  -1.130  0.108E-01  0.541E-02  0.541E-02
  -1.105  0.312E-01  0.156E-01  0.156E-01
  -1.080  0.152E-01  0.761E-02  0.761E-02
  -1.055  0.326E-01  0.163E-01  0.163E-01
  -1.030  0.471E-01  0.236E-01  0.236E-01
  -1.005  0.455E-01  0.227E-01  0.227E-01
  -0.980  0.150E+00  0.752E-01  0.752E-01
  -0.955  0.196E+00  0.978E-01  0.978E-01
  -0.930  0.128E+00  0.641E-01  0.641E-01
  -0.905  0.883E-01  0.441E-01  0.441E-01
  -0.880  0.663E-01  0.331E-01  0.331E-01
  -0.855  0.103E+00  0.513E-01  0.513E-01
  -0.830  0.109E+00  0.543E-01  0.543E-01
  -0.805  0.134E+00  0.672E-01  0.672E-01
  -0.780  0.107E+00  0.536E-01  0.536E-01
  -0.755  0.813E-01  0.406E-01  0.406E-01
  -0.730  0.796E-01  0.398E-01  0.398E-01
  -0.705  0.252E-01  0.126E-01  0.126E-01
  -0.680  0.578E-01  0.289E-01  0.289E-01
  -0.655  0.131E+00  0.655E-01  0.655E-01
  -0.630  0.103E+00  0.517E-01  0.517E-01
  -0.605  0.816E-01  0.408E-01  0.408E-01
  -0.580  0.711E-01  0.355E-01  0.355E-01
  -0.555  0.450E-01  0.225E-01  0.225E-01
  -0.530  0.837E-01  0.419E-01  0.419E-01
  -0.505  0.124E+00  0.622E-01  0.622E-01
  -0.480  0.151E+00  0.754E-01  0.754E-01
  -0.455  0.978E-01  0.489E-01  0.489E-01
  -0.430  0.128E+00  0.641E-01  0.641E-01
  -0.405  0.162E+00  0.812E-01  0.812E-01
  -0.380  0.569E-01  0.284E-01  0.284E-01
  -0.355  0.397E-01  0.199E-01  0.199E-01
  -0.330  0.114E+00  0.571E-01  0.571E-01
  -0.305  0.128E+00  0.641E-01  0.641E-01
  -0.280  0.383E-01  0.191E-01  0.191E-01
  -0.255  0.374E-01  0.187E-01  0.187E-01
  -0.230  0.881E-01  0.441E-01  0.441E-01
  -0.205  0.111E+00  0.555E-01  0.555E-01
  -0.180  0.827E-01  0.413E-01  0.413E-01
  -0.155  0.941E-01  0.471E-01  0.471E-01
  -0.130  0.107E+00  0.536E-01  0.536E-01
  -0.105  0.925E-01  0.462E-01  0.462E-01
  -0.080  0.345E-01  0.172E-01  0.172E-01
  -0.055  0.133E-01  0.663E-02  0.663E-02
  -0.030  0.451E-01  0.225E-01  0.225E-01
  -0.005  0.777E-01  0.388E-01  0.388E-01
   0.020  0.923E-01  0.462E-01  0.462E-01
   0.045  0.139E+00  0.693E-01  0.693E-01
   0.070  0.128E+00  0.639E-01  0.639E-01
   0.095  0.190E+00  0.950E-01  0.950E-01
   0.120  0.109E+00  0.546E-01  0.546E-01
   0.145  0.791E-01  0.396E-01  0.396E-01
   0.170  0.109E+00  0.547E-01  0.547E-01
   0.195  0.123E+00  0.616E-01  0.616E-01
   0.220  0.773E-01  0.386E-01  0.386E-01
   0.245  0.121E+00  0.607E-01  0.607E-01
   0.270  0.170E+00  0.852E-01  0.852E-01
   0.295  0.546E-01  0.273E-01  0.273E-01
   0.320  0.435E-02  0.218E-02  0.218E-02
   0.345  0.231E-01  0.115E-01  0.115E-01
   0.370  0.108E+00  0.539E-01  0.539E-01
   0.395  0.867E-01  0.433E-01  0.433E-01
   0.420  0.964E-01  0.482E-01  0.482E-01
   0.445  0.200E+00  0.100E+00  0.100E+00
   0.470  0.152E+00  0.761E-01  0.761E-01
   0.495  0.742E-01  0.371E-01  0.371E-01
   0.520  0.112E+00  0.561E-01  0.561E-01
   0.545  0.124E+00  0.622E-01  0.622E-01
   0.570  0.580E-01  0.290E-01  0.290E-01
   0.595  0.154E-01  0.771E-02  0.771E-02
   0.620  0.649E-01  0.324E-01  0.324E-01
   0.645  0.147E+00  0.737E-01  0.737E-01
   0.670  0.189E+00  0.944E-01  0.944E-01
   0.695  0.166E+00  0.832E-01  0.832E-01
   0.720  0.192E+00  0.961E-01  0.961E-01
   0.745  0.156E+00  0.780E-01  0.780E-01
   0.770  0.116E+00  0.582E-01  0.582E-01
   0.795  0.171E+00  0.853E-01  0.853E-01
   0.820  0.160E+00  0.801E-01  0.801E-01
   0.845  0.654E-01  0.327E-01  0.327E-01
   0.870  0.345E-01  0.173E-01  0.173E-01
   0.895  0.339E-01  0.169E-01  0.169E-01
   0.920  0.754E-01  0.377E-01  0.377E-01
   0.945  0.238E+00  0.119E+00  0.119E+00
   0.970  0.238E+00  0.119E+00  0.119E+00
   0.995  0.217E+00  0.109E+00  0.109E+00
   1.020  0.241E+00  0.120E+00  0.120E+00
   1.045  0.176E+00  0.880E-01  0.880E-01
   1.070  0.905E-01  0.453E-01  0.453E-01
   1.095  0.866E-01  0.433E-01  0.433E-01
   1.120  0.107E+00  0.534E-01  0.534E-01
   1.145  0.127E+00  0.635E-01  0.635E-01
   1.170  0.229E+00  0.114E+00  0.114E+00
   1.195  0.188E+00  0.938E-01  0.938E-01
   1.220  0.142E+00  0.712E-01  0.712E-01
   1.245  0.195E+00  0.973E-01  0.973E-01
   1.270  0.338E+00  0.169E+00  0.169E+00
   1.295  0.351E+00  0.175E+00  0.175E+00
   1.320  0.185E+00  0.927E-01  0.927E-01
   1.345  0.120E+00  0.602E-01  0.602E-01
   1.370  0.104E+00  0.520E-01  0.520E-01
   1.395  0.103E+00  0.517E-01  0.517E-01
   1.420  0.976E-01  0.488E-01  0.488E-01
   1.445  0.141E+00  0.704E-01  0.704E-01
   1.470  0.193E+00  0.964E-01  0.964E-01
   1.495  0.102E+00  0.510E-01  0.510E-01
   1.520  0.666E-01  0.333E-01  0.333E-01
   1.545  0.976E-01  0.488E-01  0.488E-01
   1.570  0.151E+00  0.756E-01  0.756E-01
   1.595  0.132E+00  0.662E-01  0.662E-01
   1.620  0.115E+00  0.576E-01  0.576E-01
   1.645  0.209E+00  0.104E+00  0.104E+00
   1.670  0.201E+00  0.100E+00  0.100E+00
   1.695  0.243E+00  0.121E+00  0.121E+00
   1.720  0.166E+00  0.832E-01  0.832E-01
   1.745  0.616E-01  0.308E-01  0.308E-01
   1.770  0.891E-01  0.445E-01  0.445E-01
   1.795  0.162E+00  0.810E-01  0.810E-01
   1.820  0.201E+00  0.100E+00  0.100E+00
   1.845  0.168E+00  0.841E-01  0.841E-01
   1.870  0.956E-01  0.478E-01  0.478E-01
   1.895  0.148E+00  0.740E-01  0.740E-01
   1.920  0.203E+00  0.102E+00  0.102E+00
   1.945  0.251E+00  0.125E+00  0.125E+00
   1.970  0.201E+00  0.101E+00  0.101E+00
   1.995  0.125E+00  0.624E-01  0.624E-01
   2.020  0.143E+00  0.715E-01  0.715E-01
   2.045  0.215E+00  0.108E+00  0.108E+00
   2.070  0.232E+00  0.116E+00  0.116E+00
   2.095  0.635E-01  0.318E-01  0.318E-01
   2.120  0.610E-02  0.305E-02  0.305E-02
   2.145  0.225E-01  0.113E-01  0.113E-01
   2.170  0.119E+00  0.596E-01  0.596E-01
   2.195  0.193E+00  0.967E-01  0.967E-01
   2.220  0.249E+00  0.124E+00  0.124E+00
   2.245  0.305E+00  0.152E+00  0.152E+00
   2.270  0.186E+00  0.931E-01  0.931E-01
   2.295  0.175E+00  0.874E-01  0.874E-01
   2.320  0.232E+00  0.116E+00  0.116E+00
   2.345  0.164E+00  0.820E-01  0.820E-01
   2.370  0.105E+00  0.523E-01  0.523E-01
   2.395  0.105E+00  0.525E-01  0.525E-01
   2.420  0.214E+00  0.107E+00  0.107E+00
   2.445  0.210E+00  0.105E+00  0.105E+00
   2.470  0.252E+00  0.126E+00  0.126E+00
   2.495  0.269E+00  0.134E+00  0.134E+00
   2.520  0.164E+00  0.821E-01  0.821E-01
   2.545  0.169E+00  0.847E-01  0.847E-01
   2.570  0.106E+00  0.530E-01  0.530E-01
   2.595  0.980E-01  0.490E-01  0.490E-01
   2.620  0.240E-01  0.120E-01  0.120E-01
   2.645  0.415E-01  0.207E-01  0.207E-01
   2.670  0.170E+00  0.851E-01  0.851E-01
   2.695  0.185E+00  0.925E-01  0.925E-01
   2.720  0.137E+00  0.685E-01  0.685E-01
   2.745  0.138E+00  0.692E-01  0.692E-01
   2.770  0.619E-01  0.310E-01  0.310E-01
   2.795  0.615E-01  0.307E-01  0.307E-01
   2.820  0.136E+00  0.679E-01  0.679E-01
   2.845  0.151E+00  0.756E-01  0.756E-01
   2.870  0.152E+00  0.760E-01  0.760E-01
   2.895  0.159E+00  0.797E-01  0.797E-01
   2.920  0.151E+00  0.757E-01  0.757E-01
   2.945  0.168E+00  0.842E-01  0.842E-01
   2.970  0.157E+00  0.783E-01  0.783E-01
   2.995  0.138E+00  0.688E-01  0.688E-01
   3.020  0.640E-01  0.320E-01  0.320E-01
   3.045  0.490E-01  0.245E-01  0.245E-01
   3.070  0.182E+00  0.909E-01  0.909E-01
   3.095  0.202E+00  0.101E+00  0.101E+00
   3.120  0.238E+00  0.119E+00  0.119E+00
   3.145  0.240E+00  0.120E+00  0.120E+00
   3.170  0.196E+00  0.978E-01  0.978E-01
   3.195  0.126E+00  0.629E-01  0.629E-01
   3.220  0.222E+00  0.111E+00  0.111E+00
   3.245  0.267E+00  0.133E+00  0.133E+00
   3.270  0.344E+00  0.172E+00  0.172E+00
   3.295  0.253E+00  0.126E+00  0.126E+00
   3.320  0.620E-01  0.310E-01  0.310E-01
   3.345  0.505E-01  0.253E-01  0.253E-01
   3.370  0.532E-01  0.266E-01  0.266E-01
   3.395  0.320E-01  0.160E-01  0.160E-01
   3.420  0.393E-01  0.196E-01  0.196E-01
   3.445  0.101E-01  0.505E-02  0.505E-02
   3.470  0.206E-01  0.103E-01  0.103E-01
   3.495  0.681E-01  0.341E-01  0.341E-01
   3.520  0.150E+00  0.752E-01  0.752E-01
   3.545  0.154E+00  0.771E-01  0.771E-01
   3.570  0.518E-01  0.259E-01  0.259E-01
   3.595  0.316E-01  0.158E-01  0.158E-01
   3.620  0.454E-01  0.227E-01  0.227E-01
   3.645  0.205E-01  0.103E-01  0.103E-01
   3.670  0.165E-01  0.824E-02  0.824E-02
   3.695  0.102E+00  0.512E-01  0.512E-01
   3.720  0.147E+00  0.736E-01  0.736E-01
   3.745  0.115E+00  0.574E-01  0.574E-01
   3.770  0.106E+00  0.530E-01  0.530E-01
   3.795  0.134E+00  0.672E-01  0.672E-01
   3.820  0.850E-01  0.425E-01  0.425E-01
   3.845  0.699E-01  0.350E-01  0.350E-01
   3.870  0.410E-01  0.205E-01  0.205E-01
   3.895  0.840E-01  0.420E-01  0.420E-01
   3.920  0.750E-01  0.375E-01  0.375E-01
   3.945  0.529E-01  0.264E-01  0.264E-01
   3.970  0.707E-01  0.353E-01  0.353E-01
   3.995  0.635E-01  0.317E-01  0.317E-01
   4.020  0.471E-01  0.236E-01  0.236E-01
   4.045  0.744E-01  0.372E-01  0.372E-01
   4.070  0.237E-01  0.118E-01  0.118E-01
   4.095  0.103E-02  0.515E-03  0.515E-03
   4.120  0.473E-03  0.237E-03  0.237E-03
   4.145  0.155E-01  0.775E-02  0.775E-02
   4.170  0.728E-01  0.364E-01  0.364E-01
   4.195  0.666E-01  0.333E-01  0.333E-01
   4.220  0.371E-01  0.185E-01  0.185E-01
   4.245  0.605E-01  0.302E-01  0.302E-01
   4.270  0.603E-01  0.301E-01  0.301E-01
   4.295  0.525E-01  0.262E-01  0.262E-01
   4.320  0.555E-01  0.278E-01  0.278E-01
   4.345  0.456E-01  0.228E-01  0.228E-01
   4.370  0.154E-01  0.770E-02  0.770E-02
   4.395  0.112E-02  0.561E-03  0.561E-03
   4.420  0.121E-01  0.606E-02  0.606E-02
   4.445  0.775E-01  0.387E-01  0.387E-01
   4.470  0.973E-01  0.486E-01  0.486E-01
   4.495  0.338E-01  0.169E-01  0.169E-01
   4.520  0.173E-01  0.866E-02  0.866E-02
   4.545  0.121E-01  0.605E-02  0.605E-02
   4.570  0.214E-02  0.107E-02  0.107E-02
   4.595  0.810E-04  0.405E-04  0.405E-04
   4.620  0.169E-04  0.847E-05  0.847E-05
   4.645  0.155E-02  0.777E-03  0.777E-03
   4.670  0.199E-01  0.993E-02  0.993E-02
   4.695  0.344E-01  0.172E-01  0.172E-01
   4.720  0.933E-02  0.466E-02  0.466E-02
   4.745  0.123E-01  0.614E-02  0.614E-02
   4.770  0.160E-01  0.802E-02  0.802E-02
   4.795  0.105E-01  0.524E-02  0.524E-02
   4.820  0.137E-01  0.684E-02  0.684E-02
   4.845  0.322E-02  0.161E-02  0.161E-02
   4.870  0.103E-03  0.515E-04  0.515E-04
   4.895  0.482E-06  0.241E-06  0.241E-06
   4.920  0.173E-08  0.867E-09  0.867E-09
   4.945  0.799E-11  0.400E-11  0.400E-11
   4.970  0.584E-14  0.292E-14  0.292E-14
   4.995  0.579E-18  0.289E-18  0.289E-18
   5.020  0.776E-23  0.388E-23  0.388E-23
   5.045  0.000E+00  0.000E+00  0.000E+00
   5.070  0.000E+00  0.000E+00  0.000E+00
   5.095  0.000E+00  0.000E+00  0.000E+00
   5.120  0.000E+00  0.000E+00  0.000E+00
   5.145  0.000E+00  0.000E+00  0.000E+00
   5.170  0.000E+00  0.000E+00  0.000E+00
   5.195  0.000E+00  0.000E+00  0.000E+00
   5.220  0.000E+00  0.000E+00  0.000E+00
   5.245  0.000E+00  0.000E+00  0.000E+00
   5.270  0.000E+00  0.000E+00  0.000E+00
   5.295  0.000E+00  0.000E+00  0.000E+00
   5.320  0.000E+00  0.000E+00  0.000E+00
   5.345  0.000E+00  0.000E+00  0.000E+00
   5.370  0.000E+00  0.000E+00  0.000E+00
   5.395  0.000E+00  0.000E+00  0.000E+00
   5.420  0.000E+00  0.000E+00  0.000E+00
   5.445  0.000E+00  0.000E+00  0.000E+00
   5.470  0.000E+00  0.000E+00  0.000E+00
   5.495  0.000E+00  0.000E+00  0.000E+00
   5.520  0.000E+00  0.000E+00  0.000E+00
   5.545  0.000E+00  0.000E+00  0.000E+00
   5.570  0.000E+00  0.000E+00  0.000E+00
   5.595  0.000E+00  0.000E+00  0.000E+00
   5.620  0.000E+00  0.000E+00  0.000E+00
   5.645  0.000E+00  0.000E+00  0.000E+00
   5.670  0.987E-20  0.494E-20  0.494E-20
   5.695  0.140E-14  0.699E-15  0.699E-15
   5.720  0.268E-10  0.134E-10  0.134E-10
   5.745  0.695E-07  0.347E-07  0.347E-07
   5.770  0.244E-04  0.122E-04  0.122E-04
   5.795  0.116E-02  0.582E-03  0.582E-03
   5.820  0.780E-02  0.390E-02  0.390E-02
   5.845  0.977E-02  0.488E-02  0.488E-02
   5.870  0.845E-02  0.422E-02  0.422E-02
   5.895  0.122E-01  0.611E-02  0.611E-02
   5.920  0.104E-01  0.518E-02  0.518E-02
   5.945  0.105E-01  0.525E-02  0.525E-02
   5.970  0.351E-02  0.176E-02  0.176E-02
   5.995  0.168E-03  0.842E-04  0.842E-04
   6.020  0.110E-05  0.548E-06  0.548E-06
   6.045  0.967E-09  0.483E-09  0.483E-09
   6.070  0.417E-08  0.209E-08  0.209E-08
   6.095  0.341E-05  0.170E-05  0.170E-05
   6.120  0.377E-03  0.189E-03  0.189E-03
   6.145  0.565E-02  0.282E-02  0.282E-02
   6.170  0.115E-01  0.574E-02  0.574E-02
   6.195  0.476E-02  0.238E-02  0.238E-02
   6.220  0.145E-01  0.724E-02  0.724E-02
   6.245  0.318E-01  0.159E-01  0.159E-01
   6.270  0.395E-01  0.198E-01  0.198E-01
   6.295  0.371E-01  0.185E-01  0.185E-01
   6.320  0.550E-01  0.275E-01  0.275E-01
   6.345  0.324E-01  0.162E-01  0.162E-01
   6.370  0.258E-01  0.129E-01  0.129E-01
   6.395  0.471E-01  0.235E-01  0.235E-01
   6.420  0.441E-01  0.221E-01  0.221E-01
   6.445  0.173E-01  0.865E-02  0.865E-02
   6.470  0.150E-02  0.750E-03  0.750E-03
   6.495  0.991E-02  0.496E-02  0.496E-02
   6.520  0.564E-01  0.282E-01  0.282E-01
   6.545  0.963E-01  0.482E-01  0.482E-01
   6.570  0.453E-01  0.226E-01  0.226E-01
   6.595  0.223E-01  0.112E-01  0.112E-01
   6.620  0.896E-02  0.448E-02  0.448E-02
   6.645  0.129E-01  0.645E-02  0.645E-02
   6.670  0.584E-01  0.292E-01  0.292E-01
   6.695  0.707E-01  0.354E-01  0.354E-01
   6.720  0.243E-01  0.121E-01  0.121E-01
   6.745  0.455E-01  0.228E-01  0.228E-01
   6.770  0.683E-01  0.341E-01  0.341E-01
   6.795  0.543E-01  0.272E-01  0.272E-01
   6.820  0.346E-01  0.173E-01  0.173E-01
   6.845  0.933E-02  0.467E-02  0.467E-02
   6.870  0.147E-01  0.735E-02  0.735E-02
   6.895  0.447E-01  0.223E-01  0.223E-01
   6.920  0.624E-01  0.312E-01  0.312E-01
   6.945  0.628E-01  0.314E-01  0.314E-01
   6.970  0.306E-01  0.153E-01  0.153E-01
   6.995  0.269E-01  0.134E-01  0.134E-01
   7.020  0.233E-01  0.117E-01  0.117E-01
   7.045  0.106E-01  0.530E-02  0.530E-02
   7.070  0.261E-01  0.131E-01  0.131E-01
   7.095  0.871E-01  0.435E-01  0.435E-01
   7.120  0.863E-01  0.432E-01  0.432E-01
   7.145  0.506E-01  0.253E-01  0.253E-01
   7.170  0.822E-01  0.411E-01  0.411E-01
   7.195  0.608E-01  0.304E-01  0.304E-01
   7.220  0.663E-01  0.331E-01  0.331E-01
   7.245  0.617E-01  0.308E-01  0.308E-01
   7.270  0.978E-01  0.489E-01  0.489E-01
   7.295  0.133E+00  0.665E-01  0.665E-01
   7.320  0.505E-01  0.253E-01  0.253E-01
   7.345  0.136E-01  0.681E-02  0.681E-02
   7.370  0.463E-01  0.231E-01  0.231E-01
   7.395  0.102E+00  0.510E-01  0.510E-01
   7.420  0.129E+00  0.645E-01  0.645E-01
   7.445  0.936E-01  0.468E-01  0.468E-01
   7.470  0.442E-01  0.221E-01  0.221E-01
   7.495  0.846E-02  0.423E-02  0.423E-02
   7.520  0.360E-01  0.180E-01  0.180E-01
   7.545  0.581E-01  0.291E-01  0.291E-01
   7.570  0.693E-01  0.347E-01  0.347E-01
   7.595  0.102E+00  0.512E-01  0.512E-01
   7.620  0.812E-01  0.406E-01  0.406E-01
   7.645  0.414E-01  0.207E-01  0.207E-01
   7.670  0.360E-01  0.180E-01  0.180E-01
   7.695  0.685E-01  0.343E-01  0.343E-01
   7.720  0.946E-01  0.473E-01  0.473E-01
   7.745  0.390E-01  0.195E-01  0.195E-01
   7.770  0.244E-01  0.122E-01  0.122E-01
   7.795  0.166E-01  0.832E-02  0.832E-02
   7.820  0.247E-01  0.123E-01  0.123E-01
   7.845  0.359E-01  0.180E-01  0.180E-01
   7.870  0.181E-01  0.907E-02  0.907E-02
   7.895  0.909E-02  0.455E-02  0.455E-02
   7.920  0.814E-01  0.407E-01  0.407E-01
   7.945  0.140E+00  0.699E-01  0.699E-01
   7.970  0.387E-01  0.194E-01  0.194E-01
   7.995  0.621E-02  0.310E-02  0.310E-02
   8.020  0.484E-02  0.242E-02  0.242E-02
   8.045  0.180E-01  0.898E-02  0.898E-02
   8.070  0.222E-01  0.111E-01  0.111E-01
   8.095  0.356E-01  0.178E-01  0.178E-01
   8.120  0.138E-01  0.689E-02  0.689E-02
   8.145  0.737E-03  0.369E-03  0.369E-03
   8.170  0.534E-05  0.267E-05  0.267E-05
   8.195  0.524E-08  0.262E-08  0.262E-08
