# E(eV)   ldos(E)   pdos(E)_1   pdos(E)_2   
  -7.905  0.778E-05  0.389E-05  0.389E-05
  -7.880  0.138E-02  0.690E-03  0.690E-03
  -7.855  0.415E-01  0.208E-01  0.208E-01
  -7.830  0.294E+00  0.147E+00  0.147E+00
  -7.805  0.744E+00  0.372E+00  0.372E+00
  -7.780  0.670E+00  0.335E+00  0.335E+00
  -7.755  0.336E+00  0.168E+00  0.168E+00
  -7.730  0.418E+00  0.209E+00  0.209E+00
  -7.705  0.468E+00  0.234E+00  0.234E+00
  -7.680  0.248E+00  0.124E+00  0.124E+00
  -7.655  0.144E+00  0.719E-01  0.719E-01
  -7.630  0.251E+00  0.125E+00  0.125E+00
  -7.605  0.265E+00  0.132E+00  0.132E+00
  -7.580  0.294E+00  0.147E+00  0.147E+00
  -7.555  0.146E+00  0.732E-01  0.732E-01
  -7.530  0.150E+00  0.749E-01  0.749E-01
  -7.505  0.249E+00  0.124E+00  0.124E+00
  -7.480  0.260E+00  0.130E+00  0.130E+00
  -7.455  0.309E+00  0.155E+00  0.155E+00
  -7.430  0.274E+00  0.137E+00  0.137E+00
  -7.405  0.220E+00  0.110E+00  0.110E+00
  -7.380  0.844E-01  0.422E-01  0.422E-01
  -7.355  0.108E+00  0.541E-01  0.541E-01
  -7.330  0.199E+00  0.993E-01  0.993E-01
  -7.305  0.126E+00  0.628E-01  0.628E-01
  -7.280  0.132E+00  0.661E-01  0.661E-01
  -7.255  0.238E+00  0.119E+00  0.119E+00
  -7.230  0.141E+00  0.703E-01  0.703E-01
  -7.205  0.379E-01  0.189E-01  0.189E-01
  -7.180  0.122E-01  0.611E-02  0.611E-02
  -7.155  0.102E+00  0.511E-01  0.511E-01
  -7.130  0.295E+00  0.148E+00  0.148E+00
  -7.105  0.206E+00  0.103E+00  0.103E+00
  -7.080  0.254E-01  0.127E-01  0.127E-01
  -7.055  0.182E-02  0.908E-03  0.908E-03
  -7.030  0.440E-01  0.220E-01  0.220E-01
  -7.005  0.237E+00  0.119E+00  0.119E+00
  -6.980  0.252E+00  0.126E+00  0.126E+00
  -6.955  0.104E+00  0.519E-01  0.519E-01
  -6.930  0.186E+00  0.928E-01  0.928E-01
  -6.905  0.239E+00  0.120E+00  0.120E+00
  -6.880  0.187E+00  0.934E-01  0.934E-01
  -6.855  0.750E-01  0.375E-01  0.375E-01
  -6.830  0.110E+00  0.551E-01  0.551E-01
  -6.805  0.140E+00  0.699E-01  0.699E-01
  -6.780  0.842E-01  0.421E-01  0.421E-01
  -6.755  0.749E-01  0.374E-01  0.374E-01
  -6.730  0.835E-01  0.418E-01  0.418E-01
  -6.705  0.974E-01  0.487E-01  0.487E-01
  -6.680  0.231E+00  0.116E+00  0.116E+00
  -6.655  0.106E+00  0.529E-01  0.529E-01
  -6.630  0.812E-01  0.406E-01  0.406E-01
  -6.605  0.173E+00  0.864E-01  0.864E-01
  -6.580  0.126E+00  0.632E-01  0.632E-01
  -6.555  0.523E-01  0.261E-01  0.261E-01
  -6.530  0.600E-01  0.300E-01  0.300E-01
  -6.505  0.111E+00  0.553E-01  0.553E-01
  -6.480  0.767E-01  0.384E-01  0.384E-01
  -6.455  0.985E-01  0.493E-01  0.493E-01
  -6.430  0.199E+00  0.993E-01  0.993E-01
  -6.405  0.233E+00  0.117E+00  0.117E+00
  -6.380  0.711E-01  0.356E-01  0.356E-01
  -6.355  0.965E-02  0.483E-02  0.483E-02
  -6.330  0.362E-02  0.181E-02  0.181E-02
  -6.305  0.482E-01  0.241E-01  0.241E-01
  -6.280  0.131E+00  0.657E-01  0.657E-01
  -6.255  0.704E-01  0.352E-01  0.352E-01
  -6.230  0.195E-01  0.974E-02  0.974E-02
  -6.205  0.558E-01  0.279E-01  0.279E-01
  -6.180  0.684E-01  0.342E-01  0.342E-01
  -6.155  0.163E+00  0.817E-01  0.817E-01
  -6.130  0.172E+00  0.859E-01  0.859E-01
  -6.105  0.134E+00  0.669E-01  0.669E-01
  -6.080  0.778E-01  0.389E-01  0.389E-01
  -6.055  0.105E+00  0.527E-01  0.527E-01
  -6.030  0.562E-01  0.281E-01  0.281E-01
  -6.005  0.721E-01  0.360E-01  0.360E-01
  -5.980  0.127E+00  0.635E-01  0.635E-01
  -5.955  0.772E-01  0.386E-01  0.386E-01
  -5.930  0.244E-01  0.122E-01  0.122E-01
  -5.905  0.209E-01  0.104E-01  0.104E-01
  -5.880  0.816E-01  0.408E-01  0.408E-01
  -5.855  0.183E+00  0.914E-01  0.914E-01
  -5.830  0.111E+00  0.556E-01  0.556E-01
  -5.805  0.139E+00  0.694E-01  0.694E-01
  -5.780  0.201E+00  0.101E+00  0.101E+00
  -5.755  0.787E-01  0.394E-01  0.394E-01
  -5.730  0.296E-01  0.148E-01  0.148E-01
  -5.705  0.127E+00  0.634E-01  0.634E-01
  -5.680  0.116E+00  0.581E-01  0.581E-01
  -5.655  0.186E-01  0.929E-02  0.929E-02
  -5.630  0.224E-02  0.112E-02  0.112E-02
  -5.605  0.375E-01  0.188E-01  0.188E-01
  -5.580  0.131E+00  0.656E-01  0.656E-01
  -5.555  0.140E+00  0.702E-01  0.702E-01
  -5.530  0.563E-01  0.282E-01  0.282E-01
  -5.505  0.427E-01  0.213E-01  0.213E-01
  -5.480  0.142E+00  0.710E-01  0.710E-01
  -5.455  0.864E-01  0.432E-01  0.432E-01
  -5.430  0.985E-02  0.493E-02  0.493E-02
  -5.405  0.685E-02  0.343E-02  0.343E-02
  -5.380  0.850E-01  0.425E-01  0.425E-01
  -5.355  0.158E+00  0.788E-01  0.788E-01
  -5.330  0.437E-01  0.218E-01  0.218E-01
  -5.305  0.994E-02  0.497E-02  0.497E-02
  -5.280  0.482E-01  0.241E-01  0.241E-01
  -5.255  0.458E-01  0.229E-01  0.229E-01
  -5.230  0.309E-01  0.154E-01  0.154E-01
  -5.205  0.186E-01  0.932E-02  0.932E-02
  -5.180  0.645E-01  0.323E-01  0.323E-01
  -5.155  0.106E+00  0.528E-01  0.528E-01
  -5.130  0.428E-01  0.214E-01  0.214E-01
  -5.105  0.660E-01  0.330E-01  0.330E-01
  -5.080  0.758E-01  0.379E-01  0.379E-01
  -5.055  0.217E+00  0.108E+00  0.108E+00
  -5.030  0.182E+00  0.909E-01  0.909E-01
  -5.005  0.324E-01  0.162E-01  0.162E-01
  -4.980  0.298E-01  0.149E-01  0.149E-01
  -4.955  0.120E+00  0.600E-01  0.600E-01
  -4.930  0.130E+00  0.648E-01  0.648E-01
  -4.905  0.721E-01  0.361E-01  0.361E-01
  -4.880  0.894E-01  0.447E-01  0.447E-01
  -4.855  0.279E+00  0.139E+00  0.139E+00
  -4.830  0.242E+00  0.121E+00  0.121E+00
  -4.805  0.608E-01  0.304E-01  0.304E-01
  -4.780  0.115E+00  0.575E-01  0.575E-01
  -4.755  0.862E-01  0.431E-01  0.431E-01
  -4.730  0.678E-01  0.339E-01  0.339E-01
  -4.705  0.318E-01  0.159E-01  0.159E-01
  -4.680  0.719E-02  0.360E-02  0.360E-02
  -4.655  0.668E-01  0.334E-01  0.334E-01
  -4.630  0.200E+00  0.999E-01  0.999E-01
  -4.605  0.145E+00  0.727E-01  0.727E-01
  -4.580  0.614E-01  0.307E-01  0.307E-01
  -4.555  0.200E+00  0.100E+00  0.100E+00
  -4.530  0.182E+00  0.912E-01  0.912E-01
  -4.505  0.177E+00  0.886E-01  0.886E-01
  -4.480  0.113E+00  0.566E-01  0.566E-01
  -4.455  0.168E-01  0.840E-02  0.840E-02
  -4.430  0.142E-01  0.711E-02  0.711E-02
  -4.405  0.107E+00  0.536E-01  0.536E-01
  -4.380  0.156E+00  0.782E-01  0.782E-01
  -4.355  0.175E+00  0.875E-01  0.875E-01
  -4.330  0.220E+00  0.110E+00  0.110E+00
  -4.305  0.207E+00  0.103E+00  0.103E+00
  -4.280  0.603E-01  0.302E-01  0.302E-01
  -4.255  0.147E+00  0.734E-01  0.734E-01
  -4.230  0.402E+00  0.201E+00  0.201E+00
  -4.205  0.247E+00  0.124E+00  0.124E+00
  -4.180  0.246E-01  0.123E-01  0.123E-01
  -4.155  0.358E-03  0.179E-03  0.179E-03
  -4.130  0.156E-05  0.782E-06  0.782E-06
  -4.105  0.218E-03  0.109E-03  0.109E-03
  -4.080  0.823E-02  0.412E-02  0.412E-02
  -4.055  0.654E-01  0.327E-01  0.327E-01
  -4.030  0.230E+00  0.115E+00  0.115E+00
  -4.005  0.229E+00  0.115E+00  0.115E+00
  -3.980  0.247E+00  0.123E+00  0.123E+00
  -3.955  0.355E+00  0.177E+00  0.177E+00
  -3.930  0.157E+00  0.784E-01  0.784E-01
  -3.905  0.716E-01  0.358E-01  0.358E-01
  -3.880  0.113E+00  0.563E-01  0.563E-01
  -3.855  0.147E+00  0.737E-01  0.737E-01
  -3.830  0.152E+00  0.760E-01  0.760E-01
  -3.805  0.146E+00  0.732E-01  0.732E-01
  -3.780  0.158E+00  0.788E-01  0.788E-01
  -3.755  0.124E+00  0.618E-01  0.618E-01
  -3.730  0.155E+00  0.774E-01  0.774E-01
  -3.705  0.243E+00  0.122E+00  0.122E+00
  -3.680  0.186E+00  0.928E-01  0.928E-01
  -3.655  0.165E+00  0.827E-01  0.827E-01
  -3.630  0.112E+00  0.558E-01  0.558E-01
  -3.605  0.175E+00  0.876E-01  0.876E-01
  -3.580  0.969E-01  0.485E-01  0.485E-01
  -3.555  0.445E-01  0.223E-01  0.223E-01
  -3.530  0.644E-01  0.322E-01  0.322E-01
  -3.505  0.104E+00  0.520E-01  0.520E-01
  -3.480  0.106E+00  0.530E-01  0.530E-01
  -3.455  0.412E-01  0.206E-01  0.206E-01
  -3.430  0.973E-01  0.487E-01  0.487E-01
  -3.405  0.238E+00  0.119E+00  0.119E+00
  -3.380  0.310E+00  0.155E+00  0.155E+00
  -3.355  0.257E+00  0.128E+00  0.128E+00
  -3.330  0.139E+00  0.695E-01  0.695E-01
  -3.305  0.122E+00  0.611E-01  0.611E-01
  -3.280  0.122E+00  0.608E-01  0.608E-01
  -3.255  0.232E+00  0.116E+00  0.116E+00
  -3.230  0.227E+00  0.113E+00  0.113E+00
  -3.205  0.884E-01  0.442E-01  0.442E-01
  -3.180  0.965E-02  0.482E-02  0.482E-02
  -3.155  0.325E-01  0.163E-01  0.163E-01
  -3.130  0.134E+00  0.672E-01  0.672E-01
  -3.105  0.121E+00  0.604E-01  0.604E-01
  -3.080  0.552E-01  0.276E-01  0.276E-01
  -3.055  0.760E-01  0.380E-01  0.380E-01
  -3.030  0.121E+00  0.607E-01  0.607E-01
  -3.005  0.863E-01  0.432E-01  0.432E-01
  -2.980  0.414E-01  0.207E-01  0.207E-01
  -2.955  0.939E-01  0.470E-01  0.470E-01
  -2.930  0.699E-01  0.349E-01  0.349E-01
  -2.905  0.535E-01  0.268E-01  0.268E-01
  -2.880  0.462E-01  0.231E-01  0.231E-01
  -2.855  0.220E+00  0.110E+00  0.110E+00
  -2.830  0.265E+00  0.132E+00  0.132E+00
  -2.805  0.233E+00  0.116E+00  0.116E+00
  -2.780  0.144E+00  0.718E-01  0.718E-01
  -2.755  0.187E-01  0.933E-02  0.933E-02
  -2.730  0.590E-01  0.295E-01  0.295E-01
  -2.705  0.113E+00  0.563E-01  0.563E-01
  -2.680  0.682E-01  0.341E-01  0.341E-01
  -2.655  0.496E-01  0.248E-01  0.248E-01
  -2.630  0.525E-01  0.262E-01  0.262E-01
  -2.605  0.703E-01  0.351E-01  0.351E-01
  -2.580  0.718E-01  0.359E-01  0.359E-01
  -2.555  0.224E+00  0.112E+00  0.112E+00
  -2.530  0.242E+00  0.121E+00  0.121E+00
  -2.505  0.137E+00  0.685E-01  0.685E-01
  -2.480  0.127E+00  0.634E-01  0.634E-01
  -2.455  0.999E-01  0.500E-01  0.500E-01
  -2.430  0.175E+00  0.874E-01  0.874E-01
  -2.405  0.185E+00  0.926E-01  0.926E-01
  -2.380  0.170E+00  0.852E-01  0.852E-01
  -2.355  0.836E-01  0.418E-01  0.418E-01
  -2.330  0.191E+00  0.955E-01  0.955E-01
  -2.305  0.160E+00  0.800E-01  0.800E-01
  -2.280  0.764E-01  0.382E-01  0.382E-01
  -2.255  0.951E-01  0.476E-01  0.476E-01
  -2.230  0.127E+00  0.637E-01  0.637E-01
  -2.205  0.362E-01  0.181E-01  0.181E-01
  -2.180  0.203E-01  0.102E-01  0.102E-01
  -2.155  0.168E+00  0.841E-01  0.841E-01
  -2.130  0.383E+00  0.192E+00  0.192E+00
  -2.105  0.236E+00  0.118E+00  0.118E+00
  -2.080  0.338E-01  0.169E-01  0.169E-01
  -2.055  0.429E-01  0.214E-01  0.214E-01
  -2.030  0.303E-01  0.152E-01  0.152E-01
  -2.005  0.293E-02  0.147E-02  0.147E-02
  -1.980  0.256E-03  0.128E-03  0.128E-03
  -1.955  0.300E-02  0.150E-02  0.150E-02
  -1.930  0.566E-02  0.283E-02  0.283E-02
  -1.905  0.650E-02  0.325E-02  0.325E-02
  -1.880  0.714E-01  0.357E-01  0.357E-01
  -1.855  0.150E+00  0.748E-01  0.748E-01
  -1.830  0.460E-01  0.230E-01  0.230E-01
  -1.805  0.248E-02  0.124E-02  0.124E-02
  -1.780  0.154E-01  0.771E-02  0.771E-02
  -1.755  0.829E-01  0.415E-01  0.415E-01
  -1.730  0.106E+00  0.530E-01  0.530E-01
  -1.705  0.166E+00  0.831E-01  0.831E-01
  -1.680  0.747E-01  0.374E-01  0.374E-01
  -1.655  0.479E-02  0.240E-02  0.240E-02
  -1.630  0.449E-04  0.224E-04  0.224E-04
  -1.605  0.315E-03  0.157E-03  0.157E-03
  -1.580  0.499E-02  0.250E-02  0.250E-02
  -1.555  0.149E-01  0.746E-02  0.746E-02
  -1.530  0.805E-01  0.403E-01  0.403E-01
  -1.505  0.196E+00  0.978E-01  0.978E-01
  -1.480  0.116E+00  0.580E-01  0.580E-01
  -1.455  0.122E+00  0.610E-01  0.610E-01
  -1.430  0.133E+00  0.665E-01  0.665E-01
  -1.405  0.120E+00  0.599E-01  0.599E-01
  -1.380  0.442E-01  0.221E-01  0.221E-01
  -1.355  0.698E-01  0.349E-01  0.349E-01
  -1.330  0.135E+00  0.677E-01  0.677E-01
  -1.305  0.103E+00  0.513E-01  0.513E-01
  -1.280  0.124E+00  0.622E-01  0.622E-01
  -1.255  0.140E+00  0.698E-01  0.698E-01
  -1.230  0.120E+00  0.601E-01  0.601E-01
  -1.205  0.107E+00  0.534E-01  0.534E-01
  -1.180  0.198E-01  0.992E-02  0.992E-02
  -1.155  0.101E-02  0.507E-03  0.507E-03
  -1.130  0.810E-02  0.405E-02  0.405E-02
  -1.105  0.234E-01  0.117E-01  0.117E-01
  -1.080  0.143E-01  0.717E-02  0.717E-02
  -1.055  0.547E-01  0.274E-01  0.274E-01
  -1.030  0.797E-01  0.398E-01  0.398E-01
  -1.005  0.540E-01  0.270E-01  0.270E-01
  -0.980  0.102E+00  0.510E-01  0.510E-01
  -0.955  0.126E+00  0.628E-01  0.628E-01
  -0.930  0.856E-01  0.428E-01  0.428E-01
  -0.905  0.442E-01  0.221E-01  0.221E-01
  -0.880  0.739E-01  0.370E-01  0.370E-01
  -0.855  0.950E-01  0.475E-01  0.475E-01
  -0.830  0.412E-01  0.206E-01  0.206E-01
  -0.805  0.764E-01  0.382E-01  0.382E-01
  -0.780  0.115E+00  0.577E-01  0.577E-01
  -0.755  0.818E-01  0.409E-01  0.409E-01
  -0.730  0.661E-01  0.331E-01  0.331E-01
  -0.705  0.191E-01  0.956E-02  0.956E-02
  -0.680  0.636E-01  0.318E-01  0.318E-01
  -0.655  0.145E+00  0.723E-01  0.723E-01
  -0.630  0.966E-01  0.483E-01  0.483E-01
  -0.605  0.656E-01  0.328E-01  0.328E-01
  -0.580  0.726E-01  0.363E-01  0.363E-01
  -0.555  0.275E-01  0.137E-01  0.137E-01
  -0.530  0.225E-01  0.113E-01  0.113E-01
  -0.505  0.108E+00  0.539E-01  0.539E-01
  -0.480  0.163E+00  0.817E-01  0.817E-01
  -0.455  0.131E+00  0.653E-01  0.653E-01
  -0.430  0.121E+00  0.605E-01  0.605E-01
  -0.405  0.755E-01  0.378E-01  0.378E-01
  -0.380  0.168E-01  0.838E-02  0.838E-02
  -0.355  0.181E-01  0.906E-02  0.906E-02
  -0.330  0.886E-01  0.443E-01  0.443E-01
  -0.305  0.111E+00  0.555E-01  0.555E-01
  -0.280  0.339E-01  0.169E-01  0.169E-01
  -0.255  0.597E-01  0.298E-01  0.298E-01
  -0.230  0.135E+00  0.677E-01  0.677E-01
  -0.205  0.945E-01  0.472E-01  0.472E-01
  -0.180  0.342E-01  0.171E-01  0.171E-01
  -0.155  0.741E-01  0.370E-01  0.370E-01
  -0.130  0.955E-01  0.477E-01  0.477E-01
  -0.105  0.925E-01  0.463E-01  0.463E-01
  -0.080  0.451E-01  0.226E-01  0.226E-01
  -0.055  0.138E-01  0.690E-02  0.690E-02
  -0.030  0.373E-01  0.187E-01  0.187E-01
  -0.005  0.606E-01  0.303E-01  0.303E-01
   0.020  0.777E-01  0.389E-01  0.389E-01
   0.045  0.128E+00  0.639E-01  0.639E-01
   0.070  0.987E-01  0.494E-01  0.494E-01
   0.095  0.107E+00  0.535E-01  0.535E-01
   0.120  0.694E-01  0.347E-01  0.347E-01
   0.145  0.825E-01  0.413E-01  0.413E-01
   0.170  0.722E-01  0.361E-01  0.361E-01
   0.195  0.483E-01  0.241E-01  0.241E-01
   0.220  0.216E-01  0.108E-01  0.108E-01
   0.245  0.665E-01  0.332E-01  0.332E-01
   0.270  0.967E-01  0.483E-01  0.483E-01
   0.295  0.313E-01  0.156E-01  0.156E-01
   0.320  0.353E-02  0.177E-02  0.177E-02
   0.345  0.187E-01  0.935E-02  0.935E-02
   0.370  0.890E-01  0.445E-01  0.445E-01
   0.395  0.704E-01  0.352E-01  0.352E-01
   0.420  0.617E-01  0.309E-01  0.309E-01
   0.445  0.131E+00  0.655E-01  0.655E-01
   0.470  0.868E-01  0.434E-01  0.434E-01
   0.495  0.204E-01  0.102E-01  0.102E-01
   0.520  0.458E-01  0.229E-01  0.229E-01
   0.545  0.628E-01  0.314E-01  0.314E-01
   0.570  0.357E-01  0.178E-01  0.178E-01
   0.595  0.117E-01  0.583E-02  0.583E-02
   0.620  0.443E-01  0.221E-01  0.221E-01
   0.645  0.475E-01  0.237E-01  0.237E-01
   0.670  0.675E-01  0.337E-01  0.337E-01
   0.695  0.927E-01  0.464E-01  0.464E-01
   0.720  0.100E+00  0.501E-01  0.501E-01
   0.745  0.906E-01  0.453E-01  0.453E-01
   0.770  0.452E-01  0.226E-01  0.226E-01
   0.795  0.755E-01  0.378E-01  0.378E-01
   0.820  0.692E-01  0.346E-01  0.346E-01
   0.845  0.231E-01  0.115E-01  0.115E-01
   0.870  0.204E-02  0.102E-02  0.102E-02
   0.895  0.230E-02  0.115E-02  0.115E-02
   0.920  0.315E-01  0.158E-01  0.158E-01
   0.945  0.121E+00  0.603E-01  0.603E-01
   0.970  0.132E+00  0.660E-01  0.660E-01
   0.995  0.828E-01  0.414E-01  0.414E-01
   1.020  0.106E+00  0.531E-01  0.531E-01
   1.045  0.832E-01  0.416E-01  0.416E-01
   1.070  0.204E-01  0.102E-01  0.102E-01
   1.095  0.366E-01  0.183E-01  0.183E-01
   1.120  0.668E-01  0.334E-01  0.334E-01
   1.145  0.203E-01  0.101E-01  0.101E-01
   1.170  0.245E-01  0.123E-01  0.123E-01
   1.195  0.628E-01  0.314E-01  0.314E-01
   1.220  0.426E-01  0.213E-01  0.213E-01
   1.245  0.533E-01  0.267E-01  0.267E-01
   1.270  0.974E-01  0.487E-01  0.487E-01
   1.295  0.134E+00  0.672E-01  0.672E-01
   1.320  0.701E-01  0.351E-01  0.351E-01
   1.345  0.661E-01  0.330E-01  0.330E-01
   1.370  0.352E-01  0.176E-01  0.176E-01
   1.395  0.273E-01  0.136E-01  0.136E-01
   1.420  0.278E-01  0.139E-01  0.139E-01
   1.445  0.197E-01  0.985E-02  0.985E-02
   1.470  0.381E-01  0.191E-01  0.191E-01
   1.495  0.448E-01  0.224E-01  0.224E-01
   1.520  0.345E-01  0.172E-01  0.172E-01
   1.545  0.201E-01  0.100E-01  0.100E-01
   1.570  0.504E-01  0.252E-01  0.252E-01
   1.595  0.434E-01  0.217E-01  0.217E-01
   1.620  0.392E-01  0.196E-01  0.196E-01
   1.645  0.544E-01  0.272E-01  0.272E-01
   1.670  0.570E-01  0.285E-01  0.285E-01
   1.695  0.388E-01  0.194E-01  0.194E-01
   1.720  0.210E-01  0.105E-01  0.105E-01
   1.745  0.439E-02  0.219E-02  0.219E-02
   1.770  0.225E-02  0.112E-02  0.112E-02
   1.795  0.636E-02  0.318E-02  0.318E-02
   1.820  0.372E-01  0.186E-01  0.186E-01
   1.845  0.406E-01  0.203E-01  0.203E-01
   1.870  0.114E-01  0.570E-02  0.570E-02
   1.895  0.403E-01  0.202E-01  0.202E-01
   1.920  0.925E-01  0.462E-01  0.462E-01
   1.945  0.121E+00  0.606E-01  0.606E-01
   1.970  0.946E-01  0.473E-01  0.473E-01
   1.995  0.409E-01  0.205E-01  0.205E-01
   2.020  0.275E-01  0.138E-01  0.138E-01
   2.045  0.201E-01  0.100E-01  0.100E-01
   2.070  0.196E-01  0.979E-02  0.979E-02
   2.095  0.537E-02  0.269E-02  0.269E-02
   2.120  0.490E-03  0.245E-03  0.245E-03
   2.145  0.829E-03  0.415E-03  0.415E-03
   2.170  0.369E-02  0.185E-02  0.185E-02
   2.195  0.205E-01  0.103E-01  0.103E-01
   2.220  0.690E-01  0.345E-01  0.345E-01
   2.245  0.701E-01  0.351E-01  0.351E-01
   2.270  0.657E-01  0.329E-01  0.329E-01
   2.295  0.484E-01  0.242E-01  0.242E-01
   2.320  0.591E-01  0.296E-01  0.296E-01
   2.345  0.426E-01  0.213E-01  0.213E-01
   2.370  0.927E-02  0.463E-02  0.463E-02
   2.395  0.126E-01  0.631E-02  0.631E-02
   2.420  0.201E-01  0.100E-01  0.100E-01
   2.445  0.927E-02  0.464E-02  0.464E-02
   2.470  0.244E-01  0.122E-01  0.122E-01
   2.495  0.383E-01  0.191E-01  0.191E-01
   2.520  0.369E-01  0.184E-01  0.184E-01
   2.545  0.280E-01  0.140E-01  0.140E-01
   2.570  0.167E-01  0.834E-02  0.834E-02
   2.595  0.259E-01  0.129E-01  0.129E-01
   2.620  0.936E-02  0.468E-02  0.468E-02
   2.645  0.878E-02  0.439E-02  0.439E-02
   2.670  0.341E-01  0.170E-01  0.170E-01
   2.695  0.238E-01  0.119E-01  0.119E-01
   2.720  0.408E-02  0.204E-02  0.204E-02
   2.745  0.566E-02  0.283E-02  0.283E-02
   2.770  0.835E-02  0.418E-02  0.418E-02
   2.795  0.126E-01  0.632E-02  0.632E-02
   2.820  0.330E-01  0.165E-01  0.165E-01
   2.845  0.341E-01  0.171E-01  0.171E-01
   2.870  0.317E-01  0.159E-01  0.159E-01
   2.895  0.490E-01  0.245E-01  0.245E-01
   2.920  0.371E-01  0.186E-01  0.186E-01
   2.945  0.331E-01  0.166E-01  0.166E-01
   2.970  0.243E-01  0.121E-01  0.121E-01
   2.995  0.198E-01  0.990E-02  0.990E-02
   3.020  0.985E-02  0.493E-02  0.493E-02
   3.045  0.678E-02  0.339E-02  0.339E-02
   3.070  0.235E-01  0.118E-01  0.118E-01
   3.095  0.220E-01  0.110E-01  0.110E-01
   3.120  0.204E-01  0.102E-01  0.102E-01
   3.145  0.110E-01  0.552E-02  0.552E-02
   3.170  0.476E-02  0.238E-02  0.238E-02
   3.195  0.285E-02  0.143E-02  0.143E-02
   3.220  0.895E-02  0.447E-02  0.447E-02
   3.245  0.101E-01  0.506E-02  0.506E-02
   3.270  0.128E-01  0.641E-02  0.641E-02
   3.295  0.161E-01  0.806E-02  0.806E-02
   3.320  0.460E-02  0.230E-02  0.230E-02
   3.345  0.976E-03  0.488E-03  0.488E-03
   3.370  0.956E-03  0.478E-03  0.478E-03
   3.395  0.174E-03  0.869E-04  0.869E-04
   3.420  0.352E-04  0.176E-04  0.176E-04
   3.445  0.685E-03  0.342E-03  0.342E-03
   3.470  0.924E-02  0.462E-02  0.462E-02
   3.495  0.204E-01  0.102E-01  0.102E-01
   3.520  0.220E-01  0.110E-01  0.110E-01
   3.545  0.246E-01  0.123E-01  0.123E-01
   3.570  0.129E-01  0.644E-02  0.644E-02
   3.595  0.147E-01  0.735E-02  0.735E-02
   3.620  0.861E-02  0.431E-02  0.431E-02
   3.645  0.214E-02  0.107E-02  0.107E-02
   3.670  0.231E-02  0.116E-02  0.116E-02
   3.695  0.145E-01  0.724E-02  0.724E-02
   3.720  0.203E-01  0.101E-01  0.101E-01
   3.745  0.156E-01  0.782E-02  0.782E-02
   3.770  0.146E-01  0.729E-02  0.729E-02
   3.795  0.977E-02  0.489E-02  0.489E-02
   3.820  0.495E-02  0.248E-02  0.248E-02
   3.845  0.527E-02  0.264E-02  0.264E-02
   3.870  0.125E-02  0.625E-03  0.625E-03
   3.895  0.670E-03  0.335E-03  0.335E-03
   3.920  0.113E-02  0.564E-03  0.564E-03
   3.945  0.248E-02  0.124E-02  0.124E-02
   3.970  0.288E-02  0.144E-02  0.144E-02
   3.995  0.366E-02  0.183E-02  0.183E-02
   4.020  0.285E-02  0.143E-02  0.143E-02
   4.045  0.413E-02  0.206E-02  0.206E-02
   4.070  0.131E-02  0.655E-03  0.655E-03
   4.095  0.570E-04  0.285E-04  0.285E-04
   4.120  0.923E-05  0.461E-05  0.461E-05
   4.145  0.286E-03  0.143E-03  0.143E-03
   4.170  0.158E-02  0.791E-03  0.791E-03
   4.195  0.407E-02  0.203E-02  0.203E-02
   4.220  0.505E-02  0.252E-02  0.252E-02
   4.245  0.611E-02  0.306E-02  0.306E-02
   4.270  0.507E-02  0.254E-02  0.254E-02
   4.295  0.790E-03  0.395E-03  0.395E-03
   4.320  0.132E-02  0.662E-03  0.662E-03
   4.345  0.343E-02  0.172E-02  0.172E-02
   4.370  0.137E-02  0.685E-03  0.685E-03
   4.395  0.874E-04  0.437E-04  0.437E-04
   4.420  0.560E-03  0.280E-03  0.280E-03
   4.445  0.428E-02  0.214E-02  0.214E-02
   4.470  0.587E-02  0.294E-02  0.294E-02
   4.495  0.170E-02  0.849E-03  0.849E-03
   4.520  0.852E-03  0.426E-03  0.426E-03
   4.545  0.450E-03  0.225E-03  0.225E-03
   4.570  0.354E-04  0.177E-04  0.177E-04
   4.595  0.378E-06  0.189E-06  0.189E-06
   4.620  0.231E-06  0.116E-06  0.116E-06
   4.645  0.219E-04  0.110E-04  0.110E-04
   4.670  0.282E-03  0.141E-03  0.141E-03
   4.695  0.490E-03  0.245E-03  0.245E-03
   4.720  0.116E-03  0.578E-04  0.578E-04
   4.745  0.601E-05  0.300E-05  0.300E-05
   4.770  0.301E-05  0.151E-05  0.151E-05
   4.795  0.527E-06  0.263E-06  0.263E-06
   4.820  0.247E-07  0.124E-07  0.124E-07
   4.845  0.143E-07  0.716E-08  0.716E-08
   4.870  0.251E-07  0.126E-07  0.126E-07
   4.895  0.738E-08  0.369E-08  0.369E-08
   4.920  0.294E-09  0.147E-09  0.147E-09
   4.945  0.159E-11  0.794E-12  0.794E-12
   4.970  0.116E-14  0.580E-15  0.580E-15
   4.995  0.115E-18  0.574E-19  0.574E-19
   5.020  0.153E-23  0.767E-24  0.767E-24
   5.045  0.000E+00  0.000E+00  0.000E+00
   5.070  0.000E+00  0.000E+00  0.000E+00
   5.095  0.000E+00  0.000E+00  0.000E+00
   5.120  0.000E+00  0.000E+00  0.000E+00
   5.145  0.000E+00  0.000E+00  0.000E+00
   5.170  0.000E+00  0.000E+00  0.000E+00
   5.195  0.000E+00  0.000E+00  0.000E+00
   5.220  0.000E+00  0.000E+00  0.000E+00
   5.245  0.000E+00  0.000E+00  0.000E+00
   5.270  0.000E+00  0.000E+00  0.000E+00
   5.295  0.000E+00  0.000E+00  0.000E+00
   5.320  0.000E+00  0.000E+00  0.000E+00
   5.345  0.000E+00  0.000E+00  0.000E+00
   5.370  0.000E+00  0.000E+00  0.000E+00
   5.395  0.000E+00  0.000E+00  0.000E+00
   5.420  0.000E+00  0.000E+00  0.000E+00
   5.445  0.000E+00  0.000E+00  0.000E+00
   5.470  0.000E+00  0.000E+00  0.000E+00
   5.495  0.000E+00  0.000E+00  0.000E+00
   5.520  0.000E+00  0.000E+00  0.000E+00
   5.545  0.000E+00  0.000E+00  0.000E+00
   5.570  0.000E+00  0.000E+00  0.000E+00
   5.595  0.000E+00  0.000E+00  0.000E+00
   5.620  0.000E+00  0.000E+00  0.000E+00
   5.645  0.000E+00  0.000E+00  0.000E+00
   5.670  0.294E-19  0.147E-19  0.147E-19
   5.695  0.417E-14  0.208E-14  0.208E-14
   5.720  0.799E-10  0.399E-10  0.399E-10
   5.745  0.207E-06  0.104E-06  0.104E-06
   5.770  0.727E-04  0.364E-04  0.364E-04
   5.795  0.347E-02  0.174E-02  0.174E-02
   5.820  0.233E-01  0.116E-01  0.116E-01
   5.845  0.292E-01  0.146E-01  0.146E-01
   5.870  0.252E-01  0.126E-01  0.126E-01
   5.895  0.373E-01  0.186E-01  0.186E-01
   5.920  0.304E-01  0.152E-01  0.152E-01
   5.945  0.273E-01  0.136E-01  0.136E-01
   5.970  0.898E-02  0.449E-02  0.449E-02
   5.995  0.430E-03  0.215E-03  0.215E-03
   6.020  0.280E-05  0.140E-05  0.140E-05
   6.045  0.247E-08  0.124E-08  0.124E-08
   6.070  0.135E-07  0.677E-08  0.677E-08
   6.095  0.111E-04  0.553E-05  0.553E-05
   6.120  0.122E-02  0.611E-03  0.611E-03
   6.145  0.183E-01  0.914E-02  0.914E-02
   6.170  0.371E-01  0.185E-01  0.185E-01
   6.195  0.133E-01  0.666E-02  0.666E-02
   6.220  0.290E-01  0.145E-01  0.145E-01
   6.245  0.702E-01  0.351E-01  0.351E-01
   6.270  0.961E-01  0.480E-01  0.480E-01
   6.295  0.938E-01  0.469E-01  0.469E-01
   6.320  0.135E+00  0.677E-01  0.677E-01
   6.345  0.782E-01  0.391E-01  0.391E-01
   6.370  0.586E-01  0.293E-01  0.293E-01
   6.395  0.109E+00  0.547E-01  0.547E-01
   6.420  0.110E+00  0.548E-01  0.548E-01
   6.445  0.435E-01  0.218E-01  0.218E-01
   6.470  0.355E-02  0.178E-02  0.178E-02
   6.495  0.204E-01  0.102E-01  0.102E-01
   6.520  0.127E+00  0.634E-01  0.634E-01
   6.545  0.227E+00  0.114E+00  0.114E+00
   6.570  0.105E+00  0.523E-01  0.523E-01
   6.595  0.522E-01  0.261E-01  0.261E-01
   6.620  0.203E-01  0.101E-01  0.101E-01
   6.645  0.184E-01  0.918E-02  0.918E-02
   6.670  0.942E-01  0.471E-01  0.471E-01
   6.695  0.126E+00  0.631E-01  0.631E-01
   6.720  0.469E-01  0.234E-01  0.234E-01
   6.745  0.920E-01  0.460E-01  0.460E-01
   6.770  0.128E+00  0.639E-01  0.639E-01
   6.795  0.105E+00  0.525E-01  0.525E-01
   6.820  0.696E-01  0.348E-01  0.348E-01
   6.845  0.181E-01  0.903E-02  0.903E-02
   6.870  0.307E-01  0.153E-01  0.153E-01
   6.895  0.954E-01  0.477E-01  0.477E-01
   6.920  0.144E+00  0.721E-01  0.721E-01
   6.945  0.128E+00  0.638E-01  0.638E-01
   6.970  0.444E-01  0.222E-01  0.222E-01
   6.995  0.364E-01  0.182E-01  0.182E-01
   7.020  0.393E-01  0.196E-01  0.196E-01
   7.045  0.184E-01  0.918E-02  0.918E-02
   7.070  0.450E-01  0.225E-01  0.225E-01
   7.095  0.169E+00  0.845E-01  0.845E-01
   7.120  0.168E+00  0.841E-01  0.841E-01
   7.145  0.729E-01  0.365E-01  0.365E-01
   7.170  0.116E+00  0.580E-01  0.580E-01
   7.195  0.978E-01  0.489E-01  0.489E-01
   7.220  0.123E+00  0.614E-01  0.614E-01
   7.245  0.188E+00  0.942E-01  0.942E-01
   7.270  0.293E+00  0.146E+00  0.146E+00
   7.295  0.306E+00  0.153E+00  0.153E+00
   7.320  0.115E+00  0.574E-01  0.574E-01
   7.345  0.224E-01  0.112E-01  0.112E-01
   7.370  0.631E-01  0.315E-01  0.315E-01
   7.395  0.204E+00  0.102E+00  0.102E+00
   7.420  0.419E+00  0.209E+00  0.209E+00
   7.445  0.288E+00  0.144E+00  0.144E+00
   7.470  0.117E+00  0.583E-01  0.583E-01
   7.495  0.158E-01  0.791E-02  0.791E-02
   7.520  0.344E-01  0.172E-01  0.172E-01
   7.545  0.601E-01  0.301E-01  0.301E-01
   7.570  0.109E+00  0.547E-01  0.547E-01
   7.595  0.175E+00  0.877E-01  0.877E-01
   7.620  0.166E+00  0.831E-01  0.831E-01
   7.645  0.940E-01  0.470E-01  0.470E-01
   7.670  0.570E-01  0.285E-01  0.285E-01
   7.695  0.104E+00  0.522E-01  0.522E-01
   7.720  0.162E+00  0.810E-01  0.810E-01
   7.745  0.838E-01  0.419E-01  0.419E-01
   7.770  0.962E-01  0.481E-01  0.481E-01
   7.795  0.696E-01  0.348E-01  0.348E-01
   7.820  0.107E+00  0.537E-01  0.537E-01
   7.845  0.118E+00  0.589E-01  0.589E-01
   7.870  0.347E-01  0.174E-01  0.174E-01
   7.895  0.139E-01  0.693E-02  0.693E-02
   7.920  0.112E+00  0.560E-01  0.560E-01
   7.945  0.189E+00  0.946E-01  0.946E-01
   7.970  0.589E-01  0.295E-01  0.295E-01
   7.995  0.181E-01  0.904E-02  0.904E-02
   8.020  0.749E-02  0.374E-02  0.374E-02
   8.045  0.206E-01  0.103E-01  0.103E-01
   8.070  0.275E-01  0.137E-01  0.137E-01
   8.095  0.469E-01  0.234E-01  0.234E-01
   8.120  0.182E-01  0.909E-02  0.909E-02
   8.145  0.973E-03  0.486E-03  0.486E-03
   8.170  0.705E-05  0.352E-05  0.352E-05
   8.195  0.691E-08  0.346E-08  0.346E-08
