# E(eV)   ldos(E)   pdos(E)_1   pdos(E)_2   pdos(E)_3   pdos(E)_4   
  -7.905  0.393E-05  0.825E-06  0.114E-05  0.114E-05  0.825E-06
  -7.880  0.694E-03  0.146E-03  0.201E-03  0.201E-03  0.146E-03
  -7.855  0.212E-01  0.456E-02  0.602E-02  0.602E-02  0.456E-02
  -7.830  0.153E+00  0.352E-01  0.413E-01  0.413E-01  0.352E-01
  -7.805  0.376E+00  0.925E-01  0.954E-01  0.954E-01  0.925E-01
  -7.780  0.326E+00  0.873E-01  0.756E-01  0.756E-01  0.873E-01
  -7.755  0.164E+00  0.439E-01  0.381E-01  0.381E-01  0.439E-01
  -7.730  0.201E+00  0.403E-01  0.602E-01  0.602E-01  0.403E-01
  -7.705  0.213E+00  0.507E-01  0.556E-01  0.556E-01  0.507E-01
  -7.680  0.107E+00  0.315E-01  0.218E-01  0.218E-01  0.315E-01
  -7.655  0.569E-01  0.123E-01  0.162E-01  0.162E-01  0.123E-01
  -7.630  0.130E+00  0.310E-01  0.341E-01  0.341E-01  0.310E-01
  -7.605  0.150E+00  0.366E-01  0.384E-01  0.384E-01  0.366E-01
  -7.580  0.136E+00  0.386E-01  0.296E-01  0.296E-01  0.386E-01
  -7.555  0.607E-01  0.186E-01  0.118E-01  0.118E-01  0.186E-01
  -7.530  0.805E-01  0.210E-01  0.192E-01  0.192E-01  0.210E-01
  -7.505  0.120E+00  0.272E-01  0.328E-01  0.328E-01  0.272E-01
  -7.480  0.141E+00  0.317E-01  0.389E-01  0.389E-01  0.317E-01
  -7.455  0.205E+00  0.567E-01  0.457E-01  0.457E-01  0.567E-01
  -7.430  0.171E+00  0.523E-01  0.333E-01  0.333E-01  0.523E-01
  -7.405  0.926E-01  0.259E-01  0.205E-01  0.205E-01  0.259E-01
  -7.380  0.319E-01  0.895E-02  0.700E-02  0.700E-02  0.895E-02
  -7.355  0.684E-01  0.214E-01  0.127E-01  0.127E-01  0.214E-01
  -7.330  0.141E+00  0.356E-01  0.349E-01  0.349E-01  0.356E-01
  -7.305  0.830E-01  0.145E-01  0.270E-01  0.270E-01  0.145E-01
  -7.280  0.414E-01  0.868E-02  0.120E-01  0.120E-01  0.868E-02
  -7.255  0.806E-01  0.229E-01  0.173E-01  0.173E-01  0.229E-01
  -7.230  0.711E-01  0.126E-01  0.229E-01  0.229E-01  0.126E-01
  -7.205  0.233E-01  0.133E-02  0.103E-01  0.103E-01  0.133E-02
  -7.180  0.825E-02  0.606E-03  0.352E-02  0.352E-02  0.606E-03
  -7.155  0.716E-01  0.123E-01  0.235E-01  0.235E-01  0.123E-01
  -7.130  0.191E+00  0.505E-01  0.451E-01  0.451E-01  0.505E-01
  -7.105  0.122E+00  0.382E-01  0.226E-01  0.226E-01  0.382E-01
  -7.080  0.148E-01  0.500E-02  0.240E-02  0.240E-02  0.500E-02
  -7.055  0.816E-03  0.244E-03  0.164E-03  0.164E-03  0.244E-03
  -7.030  0.207E-01  0.542E-02  0.493E-02  0.493E-02  0.542E-02
  -7.005  0.133E+00  0.332E-01  0.333E-01  0.333E-01  0.332E-01
  -6.980  0.160E+00  0.342E-01  0.459E-01  0.459E-01  0.342E-01
  -6.955  0.729E-01  0.121E-01  0.244E-01  0.244E-01  0.121E-01
  -6.930  0.140E+00  0.315E-01  0.385E-01  0.385E-01  0.315E-01
  -6.905  0.174E+00  0.367E-01  0.501E-01  0.501E-01  0.367E-01
  -6.880  0.135E+00  0.243E-01  0.435E-01  0.435E-01  0.243E-01
  -6.855  0.444E-01  0.110E-01  0.112E-01  0.112E-01  0.110E-01
  -6.830  0.423E-01  0.153E-01  0.586E-02  0.586E-02  0.153E-01
  -6.805  0.419E-01  0.137E-01  0.729E-02  0.729E-02  0.137E-01
  -6.780  0.202E-01  0.487E-02  0.523E-02  0.523E-02  0.487E-02
  -6.755  0.686E-01  0.148E-01  0.195E-01  0.195E-01  0.148E-01
  -6.730  0.831E-01  0.184E-01  0.232E-01  0.232E-01  0.184E-01
  -6.705  0.793E-01  0.250E-01  0.146E-01  0.146E-01  0.250E-01
  -6.680  0.188E+00  0.615E-01  0.325E-01  0.325E-01  0.615E-01
  -6.655  0.865E-01  0.262E-01  0.170E-01  0.170E-01  0.262E-01
  -6.630  0.489E-01  0.664E-02  0.178E-01  0.178E-01  0.664E-02
  -6.605  0.663E-01  0.150E-01  0.182E-01  0.182E-01  0.150E-01
  -6.580  0.647E-01  0.202E-01  0.121E-01  0.121E-01  0.202E-01
  -6.555  0.600E-01  0.178E-01  0.122E-01  0.122E-01  0.178E-01
  -6.530  0.491E-01  0.137E-01  0.108E-01  0.108E-01  0.137E-01
  -6.505  0.822E-01  0.182E-01  0.229E-01  0.229E-01  0.182E-01
  -6.480  0.939E-01  0.203E-01  0.266E-01  0.266E-01  0.203E-01
  -6.455  0.118E+00  0.280E-01  0.312E-01  0.312E-01  0.280E-01
  -6.430  0.123E+00  0.281E-01  0.335E-01  0.335E-01  0.281E-01
  -6.405  0.155E+00  0.356E-01  0.419E-01  0.419E-01  0.356E-01
  -6.380  0.346E-01  0.791E-02  0.939E-02  0.939E-02  0.791E-02
  -6.355  0.142E-02  0.253E-03  0.458E-03  0.458E-03  0.253E-03
  -6.330  0.301E-02  0.102E-02  0.489E-03  0.489E-03  0.102E-02
  -6.305  0.508E-01  0.163E-01  0.908E-02  0.908E-02  0.163E-01
  -6.280  0.158E+00  0.481E-01  0.309E-01  0.309E-01  0.481E-01
  -6.255  0.898E-01  0.265E-01  0.184E-01  0.184E-01  0.265E-01
  -6.230  0.881E-02  0.261E-02  0.180E-02  0.180E-02  0.261E-02
  -6.205  0.347E-02  0.944E-03  0.792E-03  0.792E-03  0.944E-03
  -6.180  0.365E-01  0.589E-02  0.124E-01  0.124E-01  0.589E-02
  -6.155  0.142E+00  0.274E-01  0.434E-01  0.434E-01  0.274E-01
  -6.130  0.137E+00  0.363E-01  0.321E-01  0.321E-01  0.363E-01
  -6.105  0.100E+00  0.343E-01  0.158E-01  0.158E-01  0.343E-01
  -6.080  0.615E-01  0.191E-01  0.117E-01  0.117E-01  0.191E-01
  -6.055  0.876E-01  0.207E-01  0.231E-01  0.231E-01  0.207E-01
  -6.030  0.467E-01  0.115E-01  0.118E-01  0.118E-01  0.115E-01
  -6.005  0.633E-01  0.216E-01  0.100E-01  0.100E-01  0.216E-01
  -5.980  0.108E+00  0.371E-01  0.170E-01  0.170E-01  0.371E-01
  -5.955  0.506E-01  0.166E-01  0.872E-02  0.872E-02  0.166E-01
  -5.930  0.930E-02  0.206E-02  0.259E-02  0.259E-02  0.206E-02
  -5.905  0.179E-01  0.222E-02  0.673E-02  0.673E-02  0.222E-02
  -5.880  0.101E+00  0.270E-01  0.236E-01  0.236E-01  0.270E-01
  -5.855  0.215E+00  0.586E-01  0.491E-01  0.491E-01  0.586E-01
  -5.830  0.129E+00  0.310E-01  0.333E-01  0.333E-01  0.310E-01
  -5.805  0.157E+00  0.270E-01  0.514E-01  0.514E-01  0.270E-01
  -5.780  0.273E+00  0.612E-01  0.755E-01  0.755E-01  0.612E-01
  -5.755  0.105E+00  0.291E-01  0.233E-01  0.233E-01  0.291E-01
  -5.730  0.261E-01  0.490E-02  0.813E-02  0.813E-02  0.490E-02
  -5.705  0.102E+00  0.119E-01  0.388E-01  0.388E-01  0.119E-01
  -5.680  0.904E-01  0.805E-02  0.372E-01  0.372E-01  0.805E-02
  -5.655  0.140E-01  0.796E-03  0.619E-02  0.619E-02  0.796E-03
  -5.630  0.164E-02  0.457E-03  0.365E-03  0.365E-03  0.457E-03
  -5.605  0.289E-01  0.102E-01  0.430E-02  0.430E-02  0.102E-01
  -5.580  0.107E+00  0.372E-01  0.163E-01  0.163E-01  0.372E-01
  -5.555  0.121E+00  0.396E-01  0.209E-01  0.209E-01  0.396E-01
  -5.530  0.488E-01  0.151E-01  0.931E-02  0.931E-02  0.151E-01
  -5.505  0.501E-01  0.859E-02  0.165E-01  0.165E-01  0.859E-02
  -5.480  0.156E+00  0.251E-01  0.528E-01  0.528E-01  0.251E-01
  -5.455  0.830E-01  0.152E-01  0.263E-01  0.263E-01  0.152E-01
  -5.430  0.824E-02  0.197E-02  0.215E-02  0.215E-02  0.197E-02
  -5.405  0.500E-02  0.429E-03  0.207E-02  0.207E-02  0.429E-03
  -5.380  0.619E-01  0.676E-02  0.242E-01  0.242E-01  0.676E-02
  -5.355  0.115E+00  0.176E-01  0.400E-01  0.400E-01  0.176E-01
  -5.330  0.319E-01  0.656E-02  0.937E-02  0.937E-02  0.656E-02
  -5.305  0.689E-02  0.236E-02  0.109E-02  0.109E-02  0.236E-02
  -5.280  0.345E-01  0.126E-01  0.468E-02  0.468E-02  0.126E-01
  -5.255  0.339E-01  0.124E-01  0.454E-02  0.454E-02  0.124E-01
  -5.230  0.227E-01  0.834E-02  0.303E-02  0.303E-02  0.834E-02
  -5.205  0.134E-01  0.488E-02  0.180E-02  0.180E-02  0.488E-02
  -5.180  0.457E-01  0.166E-01  0.626E-02  0.626E-02  0.166E-01
  -5.155  0.783E-01  0.285E-01  0.107E-01  0.107E-01  0.285E-01
  -5.130  0.522E-01  0.166E-01  0.945E-02  0.945E-02  0.166E-01
  -5.105  0.114E+00  0.336E-01  0.236E-01  0.236E-01  0.336E-01
  -5.080  0.860E-01  0.261E-01  0.169E-01  0.169E-01  0.261E-01
  -5.055  0.168E+00  0.512E-01  0.330E-01  0.330E-01  0.512E-01
  -5.030  0.139E+00  0.362E-01  0.332E-01  0.332E-01  0.362E-01
  -5.005  0.243E-01  0.475E-02  0.740E-02  0.740E-02  0.475E-02
  -4.980  0.211E-01  0.213E-02  0.843E-02  0.843E-02  0.213E-02
  -4.955  0.868E-01  0.151E-01  0.283E-01  0.283E-01  0.151E-01
  -4.930  0.948E-01  0.225E-01  0.249E-01  0.249E-01  0.225E-01
  -4.905  0.505E-01  0.107E-01  0.145E-01  0.145E-01  0.107E-01
  -4.880  0.629E-01  0.149E-01  0.165E-01  0.165E-01  0.149E-01
  -4.855  0.204E+00  0.545E-01  0.474E-01  0.474E-01  0.545E-01
  -4.830  0.178E+00  0.449E-01  0.443E-01  0.443E-01  0.449E-01
  -4.805  0.459E-01  0.973E-02  0.132E-01  0.132E-01  0.973E-02
  -4.780  0.999E-01  0.198E-01  0.302E-01  0.302E-01  0.198E-01
  -4.755  0.111E+00  0.264E-01  0.293E-01  0.293E-01  0.264E-01
  -4.730  0.698E-01  0.209E-01  0.140E-01  0.140E-01  0.209E-01
  -4.705  0.230E-01  0.770E-02  0.380E-02  0.380E-02  0.770E-02
  -4.680  0.272E-02  0.839E-03  0.521E-03  0.521E-03  0.839E-03
  -4.655  0.191E-01  0.548E-02  0.409E-02  0.409E-02  0.548E-02
  -4.630  0.825E-01  0.261E-01  0.151E-01  0.151E-01  0.261E-01
  -4.605  0.790E-01  0.263E-01  0.132E-01  0.132E-01  0.263E-01
  -4.580  0.274E-01  0.778E-02  0.592E-02  0.592E-02  0.778E-02
  -4.555  0.791E-01  0.198E-01  0.198E-01  0.198E-01  0.198E-01
  -4.530  0.869E-01  0.177E-01  0.257E-01  0.257E-01  0.177E-01
  -4.505  0.991E-01  0.126E-01  0.370E-01  0.370E-01  0.126E-01
  -4.480  0.514E-01  0.970E-02  0.160E-01  0.160E-01  0.970E-02
  -4.455  0.626E-02  0.166E-02  0.147E-02  0.147E-02  0.166E-02
  -4.430  0.677E-02  0.136E-02  0.202E-02  0.202E-02  0.136E-02
  -4.405  0.517E-01  0.105E-01  0.154E-01  0.154E-01  0.105E-01
  -4.380  0.799E-01  0.201E-01  0.198E-01  0.198E-01  0.201E-01
  -4.355  0.992E-01  0.329E-01  0.167E-01  0.167E-01  0.329E-01
  -4.330  0.118E+00  0.355E-01  0.236E-01  0.236E-01  0.355E-01
  -4.305  0.113E+00  0.298E-01  0.265E-01  0.265E-01  0.298E-01
  -4.280  0.328E-01  0.869E-02  0.770E-02  0.770E-02  0.869E-02
  -4.255  0.723E-01  0.203E-01  0.158E-01  0.158E-01  0.203E-01
  -4.230  0.193E+00  0.479E-01  0.488E-01  0.488E-01  0.479E-01
  -4.205  0.122E+00  0.287E-01  0.323E-01  0.323E-01  0.287E-01
  -4.180  0.124E-01  0.288E-02  0.330E-02  0.330E-02  0.288E-02
  -4.155  0.181E-03  0.421E-04  0.482E-04  0.482E-04  0.421E-04
  -4.130  0.100E-05  0.244E-06  0.258E-06  0.258E-06  0.244E-06
  -4.105  0.167E-03  0.415E-04  0.420E-04  0.420E-04  0.415E-04
  -4.080  0.617E-02  0.154E-02  0.154E-02  0.154E-02  0.154E-02
  -4.055  0.433E-01  0.115E-01  0.102E-01  0.102E-01  0.115E-01
  -4.030  0.127E+00  0.367E-01  0.268E-01  0.268E-01  0.367E-01
  -4.005  0.123E+00  0.358E-01  0.258E-01  0.258E-01  0.358E-01
  -3.980  0.156E+00  0.375E-01  0.404E-01  0.404E-01  0.375E-01
  -3.955  0.254E+00  0.576E-01  0.694E-01  0.694E-01  0.576E-01
  -3.930  0.148E+00  0.413E-01  0.325E-01  0.325E-01  0.413E-01
  -3.905  0.613E-01  0.187E-01  0.119E-01  0.119E-01  0.187E-01
  -3.880  0.808E-01  0.155E-01  0.249E-01  0.249E-01  0.155E-01
  -3.855  0.943E-01  0.158E-01  0.313E-01  0.313E-01  0.158E-01
  -3.830  0.926E-01  0.241E-01  0.222E-01  0.222E-01  0.241E-01
  -3.805  0.111E+00  0.331E-01  0.226E-01  0.226E-01  0.331E-01
  -3.780  0.136E+00  0.261E-01  0.420E-01  0.420E-01  0.261E-01
  -3.755  0.820E-01  0.144E-01  0.266E-01  0.266E-01  0.144E-01
  -3.730  0.109E+00  0.251E-01  0.294E-01  0.294E-01  0.251E-01
  -3.705  0.196E+00  0.473E-01  0.509E-01  0.509E-01  0.473E-01
  -3.680  0.135E+00  0.288E-01  0.388E-01  0.388E-01  0.288E-01
  -3.655  0.150E+00  0.360E-01  0.388E-01  0.388E-01  0.360E-01
  -3.630  0.955E-01  0.180E-01  0.297E-01  0.297E-01  0.180E-01
  -3.605  0.998E-01  0.158E-01  0.341E-01  0.341E-01  0.158E-01
  -3.580  0.499E-01  0.126E-01  0.123E-01  0.123E-01  0.126E-01
  -3.555  0.328E-01  0.113E-01  0.514E-02  0.514E-02  0.113E-01
  -3.530  0.518E-01  0.175E-01  0.837E-02  0.837E-02  0.175E-01
  -3.505  0.100E+00  0.317E-01  0.184E-01  0.184E-01  0.317E-01
  -3.480  0.127E+00  0.397E-01  0.238E-01  0.238E-01  0.397E-01
  -3.455  0.396E-01  0.119E-01  0.784E-02  0.784E-02  0.119E-01
  -3.430  0.605E-01  0.160E-01  0.142E-01  0.142E-01  0.160E-01
  -3.405  0.179E+00  0.423E-01  0.470E-01  0.470E-01  0.423E-01
  -3.380  0.273E+00  0.724E-01  0.643E-01  0.643E-01  0.724E-01
  -3.355  0.237E+00  0.691E-01  0.493E-01  0.493E-01  0.691E-01
  -3.330  0.130E+00  0.341E-01  0.308E-01  0.308E-01  0.341E-01
  -3.305  0.906E-01  0.250E-01  0.203E-01  0.203E-01  0.250E-01
  -3.280  0.100E+00  0.228E-01  0.273E-01  0.273E-01  0.228E-01
  -3.255  0.205E+00  0.358E-01  0.668E-01  0.668E-01  0.358E-01
  -3.230  0.169E+00  0.290E-01  0.555E-01  0.555E-01  0.290E-01
  -3.205  0.632E-01  0.988E-02  0.217E-01  0.217E-01  0.988E-02
  -3.180  0.727E-02  0.122E-02  0.241E-02  0.241E-02  0.122E-02
  -3.155  0.248E-01  0.741E-02  0.500E-02  0.500E-02  0.741E-02
  -3.130  0.963E-01  0.257E-01  0.225E-01  0.225E-01  0.257E-01
  -3.105  0.832E-01  0.202E-01  0.214E-01  0.214E-01  0.202E-01
  -3.080  0.450E-01  0.138E-01  0.869E-02  0.869E-02  0.138E-01
  -3.055  0.716E-01  0.233E-01  0.124E-01  0.124E-01  0.233E-01
  -3.030  0.120E+00  0.373E-01  0.226E-01  0.226E-01  0.373E-01
  -3.005  0.826E-01  0.246E-01  0.168E-01  0.168E-01  0.246E-01
  -2.980  0.403E-01  0.888E-02  0.113E-01  0.113E-01  0.888E-02
  -2.955  0.928E-01  0.160E-01  0.304E-01  0.304E-01  0.160E-01
  -2.930  0.666E-01  0.993E-02  0.234E-01  0.234E-01  0.993E-02
  -2.905  0.475E-01  0.491E-02  0.189E-01  0.189E-01  0.491E-02
  -2.880  0.416E-01  0.883E-02  0.120E-01  0.120E-01  0.883E-02
  -2.855  0.203E+00  0.544E-01  0.472E-01  0.472E-01  0.544E-01
  -2.830  0.241E+00  0.663E-01  0.542E-01  0.542E-01  0.663E-01
  -2.805  0.179E+00  0.497E-01  0.398E-01  0.398E-01  0.497E-01
  -2.780  0.107E+00  0.298E-01  0.235E-01  0.235E-01  0.298E-01
  -2.755  0.138E-01  0.387E-02  0.302E-02  0.302E-02  0.387E-02
  -2.730  0.424E-01  0.117E-01  0.944E-02  0.944E-02  0.117E-01
  -2.705  0.813E-01  0.225E-01  0.181E-01  0.181E-01  0.225E-01
  -2.680  0.505E-01  0.139E-01  0.114E-01  0.114E-01  0.139E-01
  -2.655  0.380E-01  0.106E-01  0.841E-02  0.841E-02  0.106E-01
  -2.630  0.464E-01  0.150E-01  0.821E-02  0.821E-02  0.150E-01
  -2.605  0.617E-01  0.208E-01  0.100E-01  0.100E-01  0.208E-01
  -2.580  0.572E-01  0.198E-01  0.882E-02  0.882E-02  0.198E-01
  -2.555  0.166E+00  0.530E-01  0.301E-01  0.301E-01  0.530E-01
  -2.530  0.176E+00  0.522E-01  0.358E-01  0.358E-01  0.522E-01
  -2.505  0.925E-01  0.286E-01  0.177E-01  0.177E-01  0.286E-01
  -2.480  0.839E-01  0.281E-01  0.138E-01  0.138E-01  0.281E-01
  -2.455  0.818E-01  0.209E-01  0.200E-01  0.200E-01  0.209E-01
  -2.430  0.156E+00  0.367E-01  0.412E-01  0.412E-01  0.367E-01
  -2.405  0.173E+00  0.383E-01  0.484E-01  0.484E-01  0.383E-01
  -2.380  0.155E+00  0.379E-01  0.396E-01  0.396E-01  0.379E-01
  -2.355  0.721E-01  0.166E-01  0.194E-01  0.194E-01  0.166E-01
  -2.330  0.160E+00  0.348E-01  0.454E-01  0.454E-01  0.348E-01
  -2.305  0.131E+00  0.285E-01  0.371E-01  0.371E-01  0.285E-01
  -2.280  0.563E-01  0.111E-01  0.170E-01  0.170E-01  0.111E-01
  -2.255  0.828E-01  0.215E-01  0.199E-01  0.199E-01  0.215E-01
  -2.230  0.123E+00  0.348E-01  0.265E-01  0.265E-01  0.348E-01
  -2.205  0.357E-01  0.104E-01  0.748E-02  0.748E-02  0.104E-01
  -2.180  0.190E-01  0.436E-02  0.515E-02  0.515E-02  0.436E-02
  -2.155  0.151E+00  0.302E-01  0.451E-01  0.451E-01  0.302E-01
  -2.130  0.329E+00  0.593E-01  0.105E+00  0.105E+00  0.593E-01
  -2.105  0.201E+00  0.364E-01  0.642E-01  0.642E-01  0.364E-01
  -2.080  0.299E-01  0.639E-02  0.856E-02  0.856E-02  0.639E-02
  -2.055  0.417E-01  0.120E-01  0.890E-02  0.890E-02  0.120E-01
  -2.030  0.296E-01  0.851E-02  0.628E-02  0.628E-02  0.851E-02
  -2.005  0.289E-02  0.830E-03  0.614E-03  0.614E-03  0.830E-03
  -1.980  0.280E-02  0.754E-03  0.644E-03  0.644E-03  0.754E-03
  -1.955  0.380E-01  0.103E-01  0.877E-02  0.877E-02  0.103E-01
  -1.930  0.711E-01  0.192E-01  0.164E-01  0.164E-01  0.192E-01
  -1.905  0.296E-01  0.706E-02  0.772E-02  0.772E-02  0.706E-02
  -1.880  0.118E+00  0.236E-01  0.353E-01  0.353E-01  0.236E-01
  -1.855  0.190E+00  0.393E-01  0.555E-01  0.555E-01  0.393E-01
  -1.830  0.560E-01  0.122E-01  0.159E-01  0.159E-01  0.122E-01
  -1.805  0.378E-01  0.972E-02  0.917E-02  0.917E-02  0.972E-02
  -1.780  0.437E-01  0.116E-01  0.103E-01  0.103E-01  0.116E-01
  -1.755  0.132E+00  0.360E-01  0.302E-01  0.302E-01  0.360E-01
  -1.730  0.199E+00  0.537E-01  0.456E-01  0.456E-01  0.537E-01
  -1.705  0.223E+00  0.585E-01  0.530E-01  0.530E-01  0.585E-01
  -1.680  0.858E-01  0.220E-01  0.208E-01  0.208E-01  0.220E-01
  -1.655  0.510E-02  0.130E-02  0.125E-02  0.125E-02  0.130E-02
  -1.630  0.506E-04  0.119E-04  0.134E-04  0.134E-04  0.119E-04
  -1.605  0.936E-03  0.122E-03  0.346E-03  0.346E-03  0.122E-03
  -1.580  0.159E-01  0.223E-02  0.574E-02  0.574E-02  0.223E-02
  -1.555  0.622E-01  0.122E-01  0.189E-01  0.189E-01  0.122E-01
  -1.530  0.158E+00  0.406E-01  0.382E-01  0.382E-01  0.406E-01
  -1.505  0.214E+00  0.568E-01  0.501E-01  0.501E-01  0.568E-01
  -1.480  0.111E+00  0.300E-01  0.254E-01  0.254E-01  0.300E-01
  -1.455  0.132E+00  0.373E-01  0.288E-01  0.288E-01  0.373E-01
  -1.430  0.234E+00  0.629E-01  0.542E-01  0.542E-01  0.629E-01
  -1.405  0.276E+00  0.674E-01  0.705E-01  0.705E-01  0.674E-01
  -1.380  0.215E+00  0.480E-01  0.594E-01  0.594E-01  0.480E-01
  -1.355  0.202E+00  0.456E-01  0.556E-01  0.556E-01  0.456E-01
  -1.330  0.220E+00  0.570E-01  0.531E-01  0.531E-01  0.570E-01
  -1.305  0.176E+00  0.479E-01  0.398E-01  0.398E-01  0.479E-01
  -1.280  0.147E+00  0.408E-01  0.328E-01  0.328E-01  0.408E-01
  -1.255  0.132E+00  0.372E-01  0.287E-01  0.287E-01  0.372E-01
  -1.230  0.123E+00  0.325E-01  0.291E-01  0.291E-01  0.325E-01
  -1.205  0.111E+00  0.271E-01  0.283E-01  0.283E-01  0.271E-01
  -1.180  0.205E-01  0.459E-02  0.566E-02  0.566E-02  0.459E-02
  -1.155  0.166E-02  0.472E-03  0.359E-03  0.359E-03  0.472E-03
  -1.130  0.214E-01  0.712E-02  0.358E-02  0.358E-02  0.712E-02
  -1.105  0.617E-01  0.205E-01  0.103E-01  0.103E-01  0.205E-01
  -1.080  0.301E-01  0.964E-02  0.542E-02  0.542E-02  0.964E-02
  -1.055  0.645E-01  0.175E-01  0.148E-01  0.148E-01  0.175E-01
  -1.030  0.933E-01  0.253E-01  0.214E-01  0.214E-01  0.253E-01
  -1.005  0.900E-01  0.266E-01  0.184E-01  0.184E-01  0.266E-01
  -0.980  0.298E+00  0.873E-01  0.617E-01  0.617E-01  0.873E-01
  -0.955  0.387E+00  0.107E+00  0.869E-01  0.869E-01  0.107E+00
  -0.930  0.254E+00  0.634E-01  0.635E-01  0.635E-01  0.634E-01
  -0.905  0.175E+00  0.438E-01  0.437E-01  0.437E-01  0.438E-01
  -0.880  0.131E+00  0.291E-01  0.365E-01  0.365E-01  0.291E-01
  -0.855  0.200E+00  0.440E-01  0.561E-01  0.561E-01  0.440E-01
  -0.830  0.190E+00  0.458E-01  0.490E-01  0.490E-01  0.458E-01
  -0.805  0.264E+00  0.656E-01  0.666E-01  0.666E-01  0.656E-01
  -0.780  0.240E+00  0.566E-01  0.633E-01  0.633E-01  0.566E-01
  -0.755  0.164E+00  0.340E-01  0.480E-01  0.480E-01  0.340E-01
  -0.730  0.157E+00  0.375E-01  0.409E-01  0.409E-01  0.375E-01
  -0.705  0.496E-01  0.140E-01  0.108E-01  0.108E-01  0.140E-01
  -0.680  0.114E+00  0.283E-01  0.287E-01  0.287E-01  0.283E-01
  -0.655  0.258E+00  0.665E-01  0.626E-01  0.626E-01  0.665E-01
  -0.630  0.204E+00  0.564E-01  0.458E-01  0.458E-01  0.564E-01
  -0.605  0.161E+00  0.354E-01  0.452E-01  0.452E-01  0.354E-01
  -0.580  0.139E+00  0.268E-01  0.427E-01  0.427E-01  0.268E-01
  -0.555  0.706E-01  0.177E-01  0.176E-01  0.176E-01  0.177E-01
  -0.530  0.151E+00  0.401E-01  0.353E-01  0.353E-01  0.401E-01
  -0.505  0.276E+00  0.663E-01  0.715E-01  0.715E-01  0.663E-01
  -0.480  0.303E+00  0.731E-01  0.787E-01  0.787E-01  0.731E-01
  -0.455  0.193E+00  0.445E-01  0.518E-01  0.518E-01  0.445E-01
  -0.430  0.254E+00  0.544E-01  0.724E-01  0.724E-01  0.544E-01
  -0.405  0.322E+00  0.715E-01  0.896E-01  0.896E-01  0.715E-01
  -0.380  0.111E+00  0.259E-01  0.295E-01  0.295E-01  0.259E-01
  -0.355  0.671E-01  0.132E-01  0.204E-01  0.204E-01  0.132E-01
  -0.330  0.231E+00  0.599E-01  0.558E-01  0.558E-01  0.599E-01
  -0.305  0.262E+00  0.700E-01  0.608E-01  0.608E-01  0.700E-01
  -0.280  0.761E-01  0.199E-01  0.182E-01  0.182E-01  0.199E-01
  -0.255  0.736E-01  0.214E-01  0.154E-01  0.154E-01  0.214E-01
  -0.230  0.174E+00  0.492E-01  0.375E-01  0.375E-01  0.492E-01
  -0.205  0.220E+00  0.537E-01  0.564E-01  0.564E-01  0.537E-01
  -0.180  0.164E+00  0.352E-01  0.469E-01  0.469E-01  0.352E-01
  -0.155  0.186E+00  0.428E-01  0.501E-01  0.501E-01  0.428E-01
  -0.130  0.211E+00  0.488E-01  0.567E-01  0.567E-01  0.488E-01
  -0.105  0.182E+00  0.443E-01  0.467E-01  0.467E-01  0.443E-01
  -0.080  0.676E-01  0.200E-01  0.138E-01  0.138E-01  0.200E-01
  -0.055  0.261E-01  0.464E-02  0.841E-02  0.841E-02  0.464E-02
  -0.030  0.888E-01  0.163E-01  0.281E-01  0.281E-01  0.163E-01
  -0.005  0.153E+00  0.410E-01  0.354E-01  0.354E-01  0.410E-01
   0.020  0.182E+00  0.514E-01  0.394E-01  0.394E-01  0.514E-01
   0.045  0.272E+00  0.675E-01  0.685E-01  0.685E-01  0.675E-01
   0.070  0.240E+00  0.614E-01  0.587E-01  0.587E-01  0.614E-01
   0.095  0.372E+00  0.104E+00  0.822E-01  0.822E-01  0.104E+00
   0.120  0.230E+00  0.622E-01  0.528E-01  0.528E-01  0.622E-01
   0.145  0.158E+00  0.414E-01  0.377E-01  0.377E-01  0.414E-01
   0.170  0.218E+00  0.574E-01  0.514E-01  0.514E-01  0.574E-01
   0.195  0.245E+00  0.683E-01  0.542E-01  0.542E-01  0.683E-01
   0.220  0.154E+00  0.415E-01  0.357E-01  0.357E-01  0.415E-01
   0.245  0.242E+00  0.553E-01  0.658E-01  0.658E-01  0.553E-01
   0.270  0.339E+00  0.785E-01  0.912E-01  0.912E-01  0.785E-01
   0.295  0.109E+00  0.254E-01  0.290E-01  0.290E-01  0.254E-01
   0.320  0.862E-02  0.212E-02  0.219E-02  0.219E-02  0.212E-02
   0.345  0.453E-01  0.138E-01  0.887E-02  0.887E-02  0.138E-01
   0.370  0.212E+00  0.631E-01  0.428E-01  0.428E-01  0.631E-01
   0.395  0.170E+00  0.483E-01  0.367E-01  0.367E-01  0.483E-01
   0.420  0.190E+00  0.431E-01  0.521E-01  0.521E-01  0.431E-01
   0.445  0.396E+00  0.809E-01  0.117E+00  0.117E+00  0.809E-01
   0.470  0.302E+00  0.622E-01  0.889E-01  0.889E-01  0.622E-01
   0.495  0.147E+00  0.364E-01  0.370E-01  0.370E-01  0.364E-01
   0.520  0.219E+00  0.610E-01  0.486E-01  0.486E-01  0.610E-01
   0.545  0.249E+00  0.667E-01  0.577E-01  0.577E-01  0.667E-01
   0.570  0.115E+00  0.281E-01  0.295E-01  0.295E-01  0.281E-01
   0.595  0.303E-01  0.845E-02  0.672E-02  0.672E-02  0.845E-02
   0.620  0.128E+00  0.394E-01  0.246E-01  0.246E-01  0.394E-01
   0.645  0.295E+00  0.860E-01  0.613E-01  0.613E-01  0.860E-01
   0.670  0.377E+00  0.979E-01  0.907E-01  0.907E-01  0.979E-01
   0.695  0.325E+00  0.796E-01  0.830E-01  0.830E-01  0.796E-01
   0.720  0.383E+00  0.104E+00  0.876E-01  0.876E-01  0.104E+00
   0.745  0.312E+00  0.801E-01  0.759E-01  0.759E-01  0.801E-01
   0.770  0.230E+00  0.528E-01  0.622E-01  0.622E-01  0.528E-01
   0.795  0.336E+00  0.846E-01  0.835E-01  0.835E-01  0.846E-01
   0.820  0.315E+00  0.832E-01  0.743E-01  0.743E-01  0.832E-01
   0.845  0.128E+00  0.378E-01  0.264E-01  0.264E-01  0.378E-01
   0.870  0.699E-01  0.154E-01  0.195E-01  0.195E-01  0.154E-01
   0.895  0.687E-01  0.138E-01  0.205E-01  0.205E-01  0.138E-01
   0.920  0.150E+00  0.314E-01  0.434E-01  0.434E-01  0.314E-01
   0.945  0.472E+00  0.102E+00  0.134E+00  0.134E+00  0.102E+00
   0.970  0.472E+00  0.112E+00  0.124E+00  0.124E+00  0.112E+00
   0.995  0.433E+00  0.121E+00  0.957E-01  0.957E-01  0.121E+00
   1.020  0.477E+00  0.116E+00  0.122E+00  0.122E+00  0.116E+00
   1.045  0.347E+00  0.802E-01  0.932E-01  0.932E-01  0.802E-01
   1.070  0.180E+00  0.466E-01  0.432E-01  0.432E-01  0.466E-01
   1.095  0.171E+00  0.372E-01  0.483E-01  0.483E-01  0.372E-01
   1.120  0.210E+00  0.486E-01  0.562E-01  0.562E-01  0.486E-01
   1.145  0.254E+00  0.664E-01  0.606E-01  0.606E-01  0.664E-01
   1.170  0.458E+00  0.105E+00  0.124E+00  0.124E+00  0.105E+00
   1.195  0.372E+00  0.755E-01  0.111E+00  0.111E+00  0.755E-01
   1.220  0.283E+00  0.634E-01  0.781E-01  0.781E-01  0.634E-01
   1.245  0.386E+00  0.107E+00  0.864E-01  0.864E-01  0.107E+00
   1.270  0.671E+00  0.184E+00  0.151E+00  0.151E+00  0.184E+00
   1.295  0.692E+00  0.181E+00  0.165E+00  0.165E+00  0.181E+00
   1.320  0.365E+00  0.102E+00  0.805E-01  0.805E-01  0.102E+00
   1.345  0.234E+00  0.636E-01  0.536E-01  0.536E-01  0.636E-01
   1.370  0.205E+00  0.479E-01  0.545E-01  0.545E-01  0.479E-01
   1.395  0.206E+00  0.416E-01  0.615E-01  0.615E-01  0.416E-01
   1.420  0.194E+00  0.415E-01  0.557E-01  0.557E-01  0.415E-01
   1.445  0.282E+00  0.677E-01  0.731E-01  0.731E-01  0.677E-01
   1.470  0.385E+00  0.876E-01  0.105E+00  0.105E+00  0.876E-01
   1.495  0.201E+00  0.524E-01  0.482E-01  0.482E-01  0.524E-01
   1.520  0.131E+00  0.364E-01  0.290E-01  0.290E-01  0.364E-01
   1.545  0.194E+00  0.443E-01  0.527E-01  0.527E-01  0.443E-01
   1.570  0.298E+00  0.760E-01  0.732E-01  0.732E-01  0.760E-01
   1.595  0.263E+00  0.625E-01  0.689E-01  0.689E-01  0.625E-01
   1.620  0.228E+00  0.562E-01  0.580E-01  0.580E-01  0.562E-01
   1.645  0.415E+00  0.103E+00  0.104E+00  0.104E+00  0.103E+00
   1.670  0.401E+00  0.107E+00  0.934E-01  0.934E-01  0.107E+00
   1.695  0.484E+00  0.124E+00  0.118E+00  0.118E+00  0.124E+00
   1.720  0.332E+00  0.799E-01  0.862E-01  0.862E-01  0.799E-01
   1.745  0.124E+00  0.322E-01  0.297E-01  0.297E-01  0.322E-01
   1.770  0.179E+00  0.562E-01  0.334E-01  0.334E-01  0.562E-01
   1.795  0.323E+00  0.895E-01  0.721E-01  0.721E-01  0.895E-01
   1.820  0.398E+00  0.101E+00  0.980E-01  0.980E-01  0.101E+00
   1.845  0.334E+00  0.101E+00  0.656E-01  0.656E-01  0.101E+00
   1.870  0.192E+00  0.621E-01  0.337E-01  0.337E-01  0.621E-01
   1.895  0.297E+00  0.846E-01  0.639E-01  0.639E-01  0.846E-01
   1.920  0.402E+00  0.112E+00  0.888E-01  0.888E-01  0.112E+00
   1.945  0.489E+00  0.122E+00  0.122E+00  0.122E+00  0.122E+00
   1.970  0.389E+00  0.864E-01  0.108E+00  0.108E+00  0.864E-01
   1.995  0.247E+00  0.468E-01  0.769E-01  0.769E-01  0.468E-01
   2.020  0.287E+00  0.516E-01  0.919E-01  0.919E-01  0.516E-01
   2.045  0.431E+00  0.930E-01  0.122E+00  0.122E+00  0.930E-01
   2.070  0.465E+00  0.108E+00  0.124E+00  0.124E+00  0.108E+00
   2.095  0.128E+00  0.330E-01  0.309E-01  0.309E-01  0.330E-01
   2.120  0.123E-01  0.332E-02  0.283E-02  0.283E-02  0.332E-02
   2.145  0.453E-01  0.910E-02  0.135E-01  0.135E-01  0.910E-02
   2.170  0.240E+00  0.547E-01  0.653E-01  0.653E-01  0.547E-01
   2.195  0.388E+00  0.978E-01  0.964E-01  0.964E-01  0.978E-01
   2.220  0.489E+00  0.113E+00  0.132E+00  0.132E+00  0.113E+00
   2.245  0.602E+00  0.132E+00  0.169E+00  0.169E+00  0.132E+00
   2.270  0.364E+00  0.912E-01  0.908E-01  0.908E-01  0.912E-01
   2.295  0.340E+00  0.867E-01  0.833E-01  0.833E-01  0.867E-01
   2.320  0.451E+00  0.117E+00  0.109E+00  0.109E+00  0.117E+00
   2.345  0.320E+00  0.892E-01  0.708E-01  0.708E-01  0.892E-01
   2.370  0.208E+00  0.652E-01  0.390E-01  0.390E-01  0.652E-01
   2.395  0.197E+00  0.533E-01  0.450E-01  0.450E-01  0.533E-01
   2.420  0.422E+00  0.110E+00  0.101E+00  0.101E+00  0.110E+00
   2.445  0.424E+00  0.115E+00  0.970E-01  0.970E-01  0.115E+00
   2.470  0.502E+00  0.130E+00  0.121E+00  0.121E+00  0.130E+00
   2.495  0.536E+00  0.138E+00  0.130E+00  0.130E+00  0.138E+00
   2.520  0.336E+00  0.898E-01  0.784E-01  0.784E-01  0.898E-01
   2.545  0.340E+00  0.767E-01  0.934E-01  0.934E-01  0.767E-01
   2.570  0.210E+00  0.588E-01  0.463E-01  0.463E-01  0.588E-01
   2.595  0.194E+00  0.619E-01  0.351E-01  0.351E-01  0.619E-01
   2.620  0.472E-01  0.137E-01  0.986E-02  0.986E-02  0.137E-01
   2.645  0.831E-01  0.154E-01  0.261E-01  0.261E-01  0.154E-01
   2.670  0.335E+00  0.671E-01  0.100E+00  0.100E+00  0.671E-01
   2.695  0.367E+00  0.781E-01  0.105E+00  0.105E+00  0.781E-01
   2.720  0.279E+00  0.659E-01  0.737E-01  0.737E-01  0.659E-01
   2.745  0.283E+00  0.670E-01  0.745E-01  0.745E-01  0.670E-01
   2.770  0.125E+00  0.230E-01  0.395E-01  0.395E-01  0.230E-01
   2.795  0.134E+00  0.323E-01  0.345E-01  0.345E-01  0.323E-01
   2.820  0.280E+00  0.755E-01  0.647E-01  0.647E-01  0.755E-01
   2.845  0.289E+00  0.842E-01  0.604E-01  0.604E-01  0.842E-01
   2.870  0.292E+00  0.842E-01  0.620E-01  0.620E-01  0.842E-01
   2.895  0.288E+00  0.659E-01  0.782E-01  0.782E-01  0.659E-01
   2.920  0.289E+00  0.795E-01  0.651E-01  0.651E-01  0.795E-01
   2.945  0.334E+00  0.885E-01  0.786E-01  0.786E-01  0.885E-01
   2.970  0.310E+00  0.579E-01  0.970E-01  0.970E-01  0.579E-01
   2.995  0.276E+00  0.671E-01  0.710E-01  0.710E-01  0.671E-01
   3.020  0.127E+00  0.372E-01  0.263E-01  0.263E-01  0.372E-01
   3.045  0.780E-01  0.183E-01  0.206E-01  0.206E-01  0.183E-01
   3.070  0.304E+00  0.731E-01  0.790E-01  0.790E-01  0.731E-01
   3.095  0.370E+00  0.905E-01  0.945E-01  0.945E-01  0.905E-01
   3.120  0.503E+00  0.121E+00  0.131E+00  0.131E+00  0.121E+00
   3.145  0.545E+00  0.141E+00  0.131E+00  0.131E+00  0.141E+00
   3.170  0.429E+00  0.119E+00  0.949E-01  0.949E-01  0.119E+00
   3.195  0.262E+00  0.637E-01  0.671E-01  0.671E-01  0.637E-01
   3.220  0.454E+00  0.945E-01  0.132E+00  0.132E+00  0.945E-01
   3.245  0.531E+00  0.128E+00  0.138E+00  0.138E+00  0.128E+00
   3.270  0.656E+00  0.171E+00  0.157E+00  0.157E+00  0.171E+00
   3.295  0.540E+00  0.145E+00  0.125E+00  0.125E+00  0.145E+00
   3.320  0.163E+00  0.437E-01  0.379E-01  0.379E-01  0.437E-01
   3.345  0.872E-01  0.186E-01  0.250E-01  0.250E-01  0.186E-01
   3.370  0.917E-01  0.197E-01  0.261E-01  0.261E-01  0.197E-01
   3.395  0.571E-01  0.194E-01  0.918E-02  0.918E-02  0.194E-01
   3.420  0.699E-01  0.266E-01  0.833E-02  0.833E-02  0.266E-01
   3.445  0.181E-01  0.645E-02  0.257E-02  0.257E-02  0.645E-02
   3.470  0.382E-01  0.790E-02  0.112E-01  0.112E-01  0.790E-02
   3.495  0.130E+00  0.260E-01  0.390E-01  0.390E-01  0.260E-01
   3.520  0.307E+00  0.788E-01  0.750E-01  0.750E-01  0.788E-01
   3.545  0.327E+00  0.930E-01  0.707E-01  0.707E-01  0.930E-01
   3.570  0.106E+00  0.318E-01  0.211E-01  0.211E-01  0.318E-01
   3.595  0.520E-01  0.146E-01  0.114E-01  0.114E-01  0.146E-01
   3.620  0.801E-01  0.133E-01  0.267E-01  0.267E-01  0.133E-01
   3.645  0.373E-01  0.515E-02  0.135E-01  0.135E-01  0.515E-02
   3.670  0.356E-01  0.618E-02  0.116E-01  0.116E-01  0.618E-02
   3.695  0.223E+00  0.407E-01  0.708E-01  0.708E-01  0.407E-01
   3.720  0.315E+00  0.709E-01  0.865E-01  0.865E-01  0.709E-01
   3.745  0.246E+00  0.700E-01  0.532E-01  0.532E-01  0.700E-01
   3.770  0.219E+00  0.531E-01  0.567E-01  0.567E-01  0.531E-01
   3.795  0.257E+00  0.733E-01  0.551E-01  0.551E-01  0.733E-01
   3.820  0.161E+00  0.475E-01  0.332E-01  0.332E-01  0.475E-01
   3.845  0.139E+00  0.327E-01  0.370E-01  0.370E-01  0.327E-01
   3.870  0.102E+00  0.218E-01  0.294E-01  0.294E-01  0.218E-01
   3.895  0.176E+00  0.402E-01  0.476E-01  0.476E-01  0.402E-01
   3.920  0.152E+00  0.345E-01  0.417E-01  0.417E-01  0.345E-01
   3.945  0.107E+00  0.330E-01  0.206E-01  0.206E-01  0.330E-01
   3.970  0.142E+00  0.379E-01  0.330E-01  0.330E-01  0.379E-01
   3.995  0.125E+00  0.356E-01  0.271E-01  0.271E-01  0.356E-01
   4.020  0.955E-01  0.225E-01  0.252E-01  0.252E-01  0.225E-01
   4.045  0.153E+00  0.296E-01  0.471E-01  0.471E-01  0.296E-01
   4.070  0.488E-01  0.936E-02  0.151E-01  0.151E-01  0.936E-02
   4.095  0.213E-02  0.407E-03  0.656E-03  0.656E-03  0.407E-03
   4.120  0.993E-03  0.272E-03  0.225E-03  0.225E-03  0.272E-03
   4.145  0.325E-01  0.906E-02  0.720E-02  0.720E-02  0.906E-02
   4.170  0.152E+00  0.419E-01  0.341E-01  0.341E-01  0.419E-01
   4.195  0.129E+00  0.282E-01  0.360E-01  0.360E-01  0.282E-01
   4.220  0.615E-01  0.801E-02  0.228E-01  0.228E-01  0.801E-02
   4.245  0.129E+00  0.284E-01  0.364E-01  0.364E-01  0.284E-01
   4.270  0.128E+00  0.311E-01  0.331E-01  0.331E-01  0.311E-01
   4.295  0.862E-01  0.291E-01  0.140E-01  0.140E-01  0.291E-01
   4.320  0.104E+00  0.358E-01  0.160E-01  0.160E-01  0.358E-01
   4.345  0.110E+00  0.405E-01  0.146E-01  0.146E-01  0.405E-01
   4.370  0.364E-01  0.134E-01  0.482E-02  0.482E-02  0.134E-01
   4.395  0.244E-02  0.799E-03  0.420E-03  0.420E-03  0.799E-03
   4.420  0.221E-01  0.517E-02  0.588E-02  0.588E-02  0.517E-02
   4.445  0.128E+00  0.308E-01  0.331E-01  0.331E-01  0.308E-01
   4.470  0.162E+00  0.345E-01  0.466E-01  0.466E-01  0.345E-01
   4.495  0.743E-01  0.137E-01  0.234E-01  0.234E-01  0.137E-01
   4.520  0.652E-01  0.172E-01  0.154E-01  0.154E-01  0.172E-01
   4.545  0.764E-01  0.152E-01  0.230E-01  0.230E-01  0.152E-01
   4.570  0.211E-01  0.324E-02  0.729E-02  0.729E-02  0.324E-02
   4.595  0.962E-03  0.135E-03  0.346E-03  0.346E-03  0.135E-03
   4.620  0.417E-04  0.769E-05  0.132E-04  0.132E-04  0.769E-05
   4.645  0.336E-02  0.650E-03  0.103E-02  0.103E-02  0.650E-03
   4.670  0.431E-01  0.838E-02  0.131E-01  0.131E-01  0.838E-02
   4.695  0.747E-01  0.146E-01  0.227E-01  0.227E-01  0.146E-01
   4.720  0.204E-01  0.450E-02  0.569E-02  0.569E-02  0.450E-02
   4.745  0.274E-01  0.101E-01  0.365E-02  0.365E-02  0.101E-01
   4.770  0.345E-01  0.128E-01  0.447E-02  0.447E-02  0.128E-01
   4.795  0.599E-02  0.222E-02  0.777E-03  0.777E-03  0.222E-02
   4.820  0.944E-03  0.253E-03  0.219E-03  0.219E-03  0.253E-03
   4.845  0.129E-01  0.323E-02  0.324E-02  0.324E-02  0.323E-02
   4.870  0.282E-01  0.706E-02  0.705E-02  0.705E-02  0.706E-02
   4.895  0.833E-02  0.209E-02  0.208E-02  0.208E-02  0.209E-02
   4.920  0.333E-03  0.834E-04  0.829E-04  0.829E-04  0.834E-04
   4.945  0.180E-05  0.452E-06  0.448E-06  0.448E-06  0.452E-06
   4.970  0.132E-08  0.331E-09  0.327E-09  0.327E-09  0.331E-09
   4.995  0.130E-12  0.328E-13  0.323E-13  0.323E-13  0.328E-13
   5.020  0.174E-17  0.440E-18  0.433E-18  0.433E-18  0.440E-18
   5.045  0.000E+00  0.000E+00  0.000E+00  0.000E+00  0.000E+00
   5.070  0.000E+00  0.000E+00  0.000E+00  0.000E+00  0.000E+00
   5.095  0.000E+00  0.000E+00  0.000E+00  0.000E+00  0.000E+00
   5.120  0.000E+00  0.000E+00  0.000E+00  0.000E+00  0.000E+00
   5.145  0.000E+00  0.000E+00  0.000E+00  0.000E+00  0.000E+00
   5.170  0.000E+00  0.000E+00  0.000E+00  0.000E+00  0.000E+00
   5.195  0.000E+00  0.000E+00  0.000E+00  0.000E+00  0.000E+00
   5.220  0.000E+00  0.000E+00  0.000E+00  0.000E+00  0.000E+00
   5.245  0.000E+00  0.000E+00  0.000E+00  0.000E+00  0.000E+00
   5.270  0.000E+00  0.000E+00  0.000E+00  0.000E+00  0.000E+00
   5.295  0.000E+00  0.000E+00  0.000E+00  0.000E+00  0.000E+00
   5.320  0.000E+00  0.000E+00  0.000E+00  0.000E+00  0.000E+00
   5.345  0.000E+00  0.000E+00  0.000E+00  0.000E+00  0.000E+00
   5.370  0.000E+00  0.000E+00  0.000E+00  0.000E+00  0.000E+00
   5.395  0.000E+00  0.000E+00  0.000E+00  0.000E+00  0.000E+00
   5.420  0.000E+00  0.000E+00  0.000E+00  0.000E+00  0.000E+00
   5.445  0.000E+00  0.000E+00  0.000E+00  0.000E+00  0.000E+00
   5.470  0.000E+00  0.000E+00  0.000E+00  0.000E+00  0.000E+00
   5.495  0.000E+00  0.000E+00  0.000E+00  0.000E+00  0.000E+00
   5.520  0.000E+00  0.000E+00  0.000E+00  0.000E+00  0.000E+00
   5.545  0.000E+00  0.000E+00  0.000E+00  0.000E+00  0.000E+00
   5.570  0.000E+00  0.000E+00  0.000E+00  0.000E+00  0.000E+00
   5.595  0.000E+00  0.000E+00  0.000E+00  0.000E+00  0.000E+00
   5.620  0.000E+00  0.000E+00  0.000E+00  0.000E+00  0.000E+00
   5.645  0.000E+00  0.000E+00  0.000E+00  0.000E+00  0.000E+00
   5.670  0.199E-19  0.746E-20  0.249E-20  0.249E-20  0.746E-20
   5.695  0.282E-14  0.106E-14  0.352E-15  0.352E-15  0.106E-14
   5.720  0.540E-10  0.202E-10  0.675E-11  0.675E-11  0.202E-10
   5.745  0.140E-06  0.525E-07  0.175E-07  0.175E-07  0.525E-07
   5.770  0.491E-04  0.184E-04  0.615E-05  0.615E-05  0.184E-04
   5.795  0.234E-02  0.875E-03  0.298E-03  0.298E-03  0.875E-03
   5.820  0.157E-01  0.562E-02  0.224E-02  0.224E-02  0.562E-02
   5.845  0.197E-01  0.491E-02  0.493E-02  0.493E-02  0.491E-02
   5.870  0.170E-01  0.149E-02  0.702E-02  0.702E-02  0.149E-02
   5.895  0.246E-01  0.558E-02  0.674E-02  0.674E-02  0.558E-02
   5.920  0.209E-01  0.721E-02  0.323E-02  0.323E-02  0.721E-02
   5.945  0.211E-01  0.791E-02  0.266E-02  0.266E-02  0.791E-02
   5.970  0.706E-02  0.265E-02  0.883E-03  0.883E-03  0.265E-02
   5.995  0.339E-03  0.127E-03  0.423E-04  0.423E-04  0.127E-03
   6.020  0.221E-05  0.827E-06  0.276E-06  0.276E-06  0.827E-06
   6.045  0.194E-08  0.729E-09  0.243E-09  0.243E-09  0.729E-09
   6.070  0.842E-08  0.213E-08  0.208E-08  0.208E-08  0.213E-08
   6.095  0.688E-05  0.174E-05  0.170E-05  0.170E-05  0.174E-05
   6.120  0.761E-03  0.192E-03  0.189E-03  0.189E-03  0.192E-03
   6.145  0.114E-01  0.287E-02  0.283E-02  0.283E-02  0.287E-02
   6.170  0.232E-01  0.582E-02  0.575E-02  0.575E-02  0.582E-02
   6.195  0.959E-02  0.240E-02  0.239E-02  0.239E-02  0.240E-02
   6.220  0.290E-01  0.744E-02  0.708E-02  0.708E-02  0.744E-02
   6.245  0.638E-01  0.168E-01  0.151E-01  0.151E-01  0.168E-01
   6.270  0.793E-01  0.156E-01  0.240E-01  0.240E-01  0.156E-01
   6.295  0.744E-01  0.122E-01  0.250E-01  0.250E-01  0.122E-01
   6.320  0.110E+00  0.144E-01  0.408E-01  0.408E-01  0.144E-01
   6.345  0.650E-01  0.528E-02  0.272E-01  0.272E-01  0.528E-02
   6.370  0.516E-01  0.163E-01  0.953E-02  0.953E-02  0.163E-01
   6.395  0.943E-01  0.335E-01  0.137E-01  0.137E-01  0.335E-01
   6.420  0.885E-01  0.314E-01  0.128E-01  0.128E-01  0.314E-01
   6.445  0.347E-01  0.123E-01  0.500E-02  0.500E-02  0.123E-01
   6.470  0.301E-02  0.829E-03  0.674E-03  0.674E-03  0.829E-03
   6.495  0.196E-01  0.178E-02  0.802E-02  0.802E-02  0.178E-02
   6.520  0.111E+00  0.212E-01  0.344E-01  0.344E-01  0.212E-01
   6.545  0.194E+00  0.524E-01  0.444E-01  0.444E-01  0.524E-01
   6.570  0.921E-01  0.282E-01  0.178E-01  0.178E-01  0.282E-01
   6.595  0.448E-01  0.149E-01  0.754E-02  0.754E-02  0.149E-01
   6.620  0.179E-01  0.611E-02  0.286E-02  0.286E-02  0.611E-02
   6.645  0.257E-01  0.922E-02  0.364E-02  0.364E-02  0.922E-02
   6.670  0.117E+00  0.391E-01  0.192E-01  0.192E-01  0.391E-01
   6.695  0.141E+00  0.440E-01  0.267E-01  0.267E-01  0.440E-01
   6.720  0.485E-01  0.155E-01  0.873E-02  0.873E-02  0.155E-01
   6.745  0.910E-01  0.331E-01  0.124E-01  0.124E-01  0.331E-01
   6.770  0.136E+00  0.457E-01  0.226E-01  0.226E-01  0.457E-01
   6.795  0.109E+00  0.222E-01  0.321E-01  0.321E-01  0.222E-01
   6.820  0.692E-01  0.409E-02  0.305E-01  0.305E-01  0.409E-02
   6.845  0.187E-01  0.669E-03  0.867E-02  0.867E-02  0.669E-03
   6.870  0.294E-01  0.165E-02  0.130E-01  0.130E-01  0.165E-02
   6.895  0.893E-01  0.680E-02  0.378E-01  0.378E-01  0.680E-02
   6.920  0.125E+00  0.247E-01  0.376E-01  0.376E-01  0.247E-01
   6.945  0.125E+00  0.309E-01  0.317E-01  0.317E-01  0.309E-01
   6.970  0.608E-01  0.189E-01  0.116E-01  0.116E-01  0.189E-01
   6.995  0.535E-01  0.183E-01  0.851E-02  0.851E-02  0.183E-01
   7.020  0.466E-01  0.155E-01  0.781E-02  0.781E-02  0.155E-01
   7.045  0.212E-01  0.701E-02  0.358E-02  0.358E-02  0.701E-02
   7.070  0.521E-01  0.173E-01  0.868E-02  0.868E-02  0.173E-01
   7.095  0.173E+00  0.573E-01  0.293E-01  0.293E-01  0.573E-01
   7.120  0.171E+00  0.568E-01  0.289E-01  0.289E-01  0.568E-01
   7.145  0.100E+00  0.262E-01  0.240E-01  0.240E-01  0.262E-01
   7.170  0.163E+00  0.206E-01  0.609E-01  0.609E-01  0.206E-01
   7.195  0.121E+00  0.218E-01  0.387E-01  0.387E-01  0.218E-01
   7.220  0.132E+00  0.457E-01  0.204E-01  0.204E-01  0.457E-01
   7.245  0.123E+00  0.416E-01  0.197E-01  0.197E-01  0.416E-01
   7.270  0.194E+00  0.517E-01  0.455E-01  0.455E-01  0.517E-01
   7.295  0.264E+00  0.597E-01  0.721E-01  0.721E-01  0.597E-01
   7.320  0.100E+00  0.251E-01  0.249E-01  0.249E-01  0.251E-01
   7.345  0.271E-01  0.498E-02  0.855E-02  0.855E-02  0.498E-02
   7.370  0.918E-01  0.133E-01  0.326E-01  0.326E-01  0.133E-01
   7.395  0.203E+00  0.365E-01  0.647E-01  0.647E-01  0.365E-01
   7.420  0.256E+00  0.537E-01  0.743E-01  0.743E-01  0.537E-01
   7.445  0.186E+00  0.518E-01  0.412E-01  0.412E-01  0.518E-01
   7.470  0.878E-01  0.276E-01  0.163E-01  0.163E-01  0.276E-01
   7.495  0.167E-01  0.562E-02  0.275E-02  0.275E-02  0.562E-02
   7.520  0.707E-01  0.246E-01  0.107E-01  0.107E-01  0.246E-01
   7.545  0.114E+00  0.399E-01  0.172E-01  0.172E-01  0.399E-01
   7.570  0.137E+00  0.461E-01  0.224E-01  0.224E-01  0.461E-01
   7.595  0.202E+00  0.599E-01  0.413E-01  0.413E-01  0.599E-01
   7.620  0.161E+00  0.487E-01  0.317E-01  0.317E-01  0.487E-01
   7.645  0.820E-01  0.290E-01  0.120E-01  0.120E-01  0.290E-01
   7.670  0.717E-01  0.261E-01  0.972E-02  0.972E-02  0.261E-01
   7.695  0.136E+00  0.426E-01  0.254E-01  0.254E-01  0.426E-01
   7.720  0.187E+00  0.477E-01  0.456E-01  0.456E-01  0.477E-01
   7.745  0.767E-01  0.203E-01  0.180E-01  0.180E-01  0.203E-01
   7.770  0.478E-01  0.174E-01  0.653E-02  0.653E-02  0.174E-01
   7.795  0.325E-01  0.106E-01  0.564E-02  0.564E-02  0.106E-01
   7.820  0.484E-01  0.653E-02  0.177E-01  0.177E-01  0.653E-02
   7.845  0.709E-01  0.804E-02  0.274E-01  0.274E-01  0.804E-02
   7.870  0.361E-01  0.364E-02  0.144E-01  0.144E-01  0.364E-02
   7.895  0.182E-01  0.456E-02  0.452E-02  0.452E-02  0.456E-02
   7.920  0.162E+00  0.506E-01  0.305E-01  0.305E-01  0.506E-01
   7.945  0.278E+00  0.893E-01  0.499E-01  0.499E-01  0.893E-01
   7.970  0.770E-01  0.256E-01  0.129E-01  0.129E-01  0.256E-01
   7.995  0.124E-01  0.455E-02  0.166E-02  0.166E-02  0.455E-02
   8.020  0.924E-02  0.342E-02  0.120E-02  0.120E-02  0.342E-02
   8.045  0.339E-01  0.125E-01  0.444E-02  0.444E-02  0.125E-01
   8.070  0.429E-01  0.159E-01  0.549E-02  0.549E-02  0.159E-01
   8.095  0.698E-01  0.261E-01  0.879E-02  0.879E-02  0.261E-01
   8.120  0.270E-01  0.101E-01  0.340E-02  0.340E-02  0.101E-01
   8.145  0.145E-02  0.542E-03  0.182E-03  0.182E-03  0.542E-03
   8.170  0.105E-04  0.393E-05  0.132E-05  0.132E-05  0.393E-05
   8.195  0.103E-07  0.385E-08  0.130E-08  0.130E-08  0.385E-08
