# E (eV)  dos(E)    pdos(E)
  -7.905  0.699E-03  0.696E-03
  -7.880  0.124E+00  0.124E+00
  -7.855  0.385E+01  0.384E+01
  -7.830  0.282E+02  0.281E+02
  -7.805  0.668E+02  0.665E+02
  -7.780  0.544E+02  0.542E+02
  -7.755  0.275E+02  0.274E+02
  -7.730  0.358E+02  0.357E+02
  -7.705  0.376E+02  0.374E+02
  -7.680  0.187E+02  0.186E+02
  -7.655  0.110E+02  0.109E+02
  -7.630  0.215E+02  0.214E+02
  -7.605  0.234E+02  0.233E+02
  -7.580  0.236E+02  0.235E+02
  -7.555  0.111E+02  0.111E+02
  -7.530  0.136E+02  0.135E+02
  -7.505  0.209E+02  0.209E+02
  -7.480  0.221E+02  0.220E+02
  -7.455  0.297E+02  0.296E+02
  -7.430  0.254E+02  0.252E+02
  -7.405  0.169E+02  0.168E+02
  -7.380  0.627E+01  0.624E+01
  -7.355  0.104E+02  0.104E+02
  -7.330  0.194E+02  0.193E+02
  -7.305  0.120E+02  0.119E+02
  -7.280  0.957E+01  0.954E+01
  -7.255  0.173E+02  0.172E+02
  -7.230  0.118E+02  0.118E+02
  -7.205  0.349E+01  0.347E+01
  -7.180  0.119E+01  0.118E+01
  -7.155  0.102E+02  0.102E+02
  -7.130  0.284E+02  0.283E+02
  -7.105  0.183E+02  0.182E+02
  -7.080  0.211E+01  0.210E+01
  -7.055  0.139E+00  0.139E+00
  -7.030  0.359E+01  0.357E+01
  -7.005  0.209E+02  0.208E+02
  -6.980  0.236E+02  0.235E+02
  -6.955  0.102E+02  0.102E+02
  -6.930  0.190E+02  0.189E+02
  -6.905  0.240E+02  0.239E+02
  -6.880  0.187E+02  0.186E+02
  -6.855  0.665E+01  0.662E+01
  -6.830  0.849E+01  0.846E+01
  -6.805  0.995E+01  0.991E+01
  -6.780  0.537E+01  0.535E+01
  -6.755  0.851E+01  0.847E+01
  -6.730  0.100E+02  0.998E+01
  -6.705  0.108E+02  0.107E+02
  -6.680  0.247E+02  0.246E+02
  -6.655  0.110E+02  0.110E+02
  -6.630  0.748E+01  0.745E+01
  -6.605  0.133E+02  0.132E+02
  -6.580  0.108E+02  0.107E+02
  -6.555  0.683E+01  0.679E+01
  -6.530  0.656E+01  0.653E+01
  -6.505  0.111E+02  0.111E+02
  -6.480  0.104E+02  0.103E+02
  -6.455  0.133E+02  0.133E+02
  -6.430  0.188E+02  0.187E+02
  -6.405  0.222E+02  0.221E+02
  -6.380  0.570E+01  0.568E+01
  -6.355  0.534E+00  0.532E+00
  -6.330  0.400E+00  0.398E+00
  -6.305  0.610E+01  0.607E+01
  -6.280  0.179E+02  0.178E+02
  -6.255  0.977E+01  0.972E+01
  -6.230  0.154E+01  0.153E+01
  -6.205  0.289E+01  0.288E+01
  -6.180  0.592E+01  0.589E+01
  -6.155  0.182E+02  0.181E+02
  -6.130  0.186E+02  0.185E+02
  -6.105  0.138E+02  0.137E+02
  -6.080  0.786E+01  0.783E+01
  -6.055  0.114E+02  0.113E+02
  -6.030  0.616E+01  0.613E+01
  -6.005  0.839E+01  0.835E+01
  -5.980  0.137E+02  0.136E+02
  -5.955  0.717E+01  0.714E+01
  -5.930  0.183E+01  0.182E+01
  -5.905  0.229E+01  0.228E+01
  -5.880  0.112E+02  0.112E+02
  -5.855  0.243E+02  0.242E+02
  -5.830  0.146E+02  0.145E+02
  -5.805  0.180E+02  0.179E+02
  -5.780  0.295E+02  0.293E+02
  -5.755  0.114E+02  0.114E+02
  -5.730  0.332E+01  0.331E+01
  -5.705  0.134E+02  0.134E+02
  -5.680  0.121E+02  0.121E+02
  -5.655  0.190E+01  0.190E+01
  -5.630  0.257E+00  0.256E+00
  -5.605  0.421E+01  0.419E+01
  -5.580  0.141E+02  0.140E+02
  -5.555  0.152E+02  0.151E+02
  -5.530  0.617E+01  0.615E+01
  -5.505  0.568E+01  0.566E+01
  -5.480  0.182E+02  0.181E+02
  -5.455  0.102E+02  0.102E+02
  -5.430  0.109E+01  0.108E+01
  -5.405  0.695E+00  0.692E+00
  -5.380  0.862E+01  0.859E+01
  -5.355  0.161E+02  0.160E+02
  -5.330  0.447E+01  0.445E+01
  -5.305  0.107E+01  0.107E+01
  -5.280  0.496E+01  0.494E+01
  -5.255  0.450E+01  0.448E+01
  -5.230  0.315E+01  0.314E+01
  -5.205  0.198E+01  0.197E+01
  -5.180  0.682E+01  0.679E+01
  -5.155  0.105E+02  0.105E+02
  -5.130  0.559E+01  0.556E+01
  -5.105  0.114E+02  0.114E+02
  -5.080  0.100E+02  0.998E+01
  -5.055  0.229E+02  0.228E+02
  -5.030  0.189E+02  0.188E+02
  -5.005  0.333E+01  0.331E+01
  -4.980  0.297E+01  0.295E+01
  -4.955  0.121E+02  0.120E+02
  -4.930  0.131E+02  0.130E+02
  -4.905  0.714E+01  0.711E+01
  -4.880  0.925E+01  0.921E+01
  -4.855  0.287E+02  0.286E+02
  -4.830  0.239E+02  0.238E+02
  -4.805  0.607E+01  0.604E+01
  -4.780  0.128E+02  0.127E+02
  -4.755  0.123E+02  0.122E+02
  -4.730  0.831E+01  0.827E+01
  -4.705  0.318E+01  0.317E+01
  -4.680  0.544E+00  0.542E+00
  -4.655  0.463E+01  0.462E+01
  -4.630  0.156E+02  0.156E+02
  -4.605  0.126E+02  0.126E+02
  -4.580  0.492E+01  0.490E+01
  -4.555  0.155E+02  0.155E+02
  -4.530  0.152E+02  0.152E+02
  -4.505  0.158E+02  0.157E+02
  -4.480  0.915E+01  0.912E+01
  -4.455  0.125E+01  0.125E+01
  -4.430  0.117E+01  0.117E+01
  -4.405  0.892E+01  0.889E+01
  -4.380  0.136E+02  0.136E+02
  -4.355  0.156E+02  0.155E+02
  -4.330  0.188E+02  0.188E+02
  -4.305  0.180E+02  0.180E+02
  -4.280  0.528E+01  0.526E+01
  -4.255  0.124E+02  0.123E+02
  -4.230  0.334E+02  0.333E+02
  -4.205  0.207E+02  0.206E+02
  -4.180  0.207E+01  0.206E+01
  -4.155  0.301E-01  0.300E-01
  -4.130  0.150E-03  0.149E-03
  -4.105  0.232E-01  0.231E-01
  -4.080  0.863E+00  0.859E+00
  -4.055  0.638E+01  0.636E+01
  -4.030  0.203E+02  0.202E+02
  -4.005  0.201E+02  0.200E+02
  -3.980  0.236E+02  0.235E+02
  -3.955  0.358E+02  0.356E+02
  -3.930  0.181E+02  0.180E+02
  -3.905  0.797E+01  0.793E+01
  -3.880  0.111E+02  0.111E+02
  -3.855  0.139E+02  0.138E+02
  -3.830  0.144E+02  0.143E+02
  -3.805  0.150E+02  0.149E+02
  -3.780  0.172E+02  0.171E+02
  -3.755  0.119E+02  0.119E+02
  -3.730  0.156E+02  0.156E+02
  -3.705  0.261E+02  0.260E+02
  -3.680  0.188E+02  0.187E+02
  -3.655  0.188E+02  0.187E+02
  -3.630  0.123E+02  0.122E+02
  -3.605  0.156E+02  0.155E+02
  -3.580  0.819E+01  0.816E+01
  -3.555  0.442E+01  0.440E+01
  -3.530  0.686E+01  0.683E+01
  -3.505  0.124E+02  0.124E+02
  -3.480  0.140E+02  0.139E+02
  -3.455  0.475E+01  0.473E+01
  -3.430  0.922E+01  0.918E+01
  -3.405  0.246E+02  0.245E+02
  -3.380  0.344E+02  0.343E+02
  -3.355  0.293E+02  0.292E+02
  -3.330  0.160E+02  0.160E+02
  -3.305  0.124E+02  0.124E+02
  -3.280  0.132E+02  0.131E+02
  -3.255  0.264E+02  0.262E+02
  -3.230  0.231E+02  0.230E+02
  -3.205  0.847E+01  0.843E+01
  -3.180  0.946E+00  0.942E+00
  -3.155  0.335E+01  0.334E+01
  -3.130  0.134E+02  0.133E+02
  -3.105  0.118E+02  0.118E+02
  -3.080  0.589E+01  0.586E+01
  -3.055  0.880E+01  0.876E+01
  -3.030  0.146E+02  0.145E+02
  -3.005  0.101E+02  0.101E+02
  -2.980  0.488E+01  0.486E+01
  -2.955  0.113E+02  0.112E+02
  -2.930  0.815E+01  0.811E+01
  -2.905  0.600E+01  0.597E+01
  -2.880  0.532E+01  0.529E+01
  -2.855  0.255E+02  0.254E+02
  -2.830  0.302E+02  0.300E+02
  -2.805  0.244E+02  0.243E+02
  -2.780  0.147E+02  0.146E+02
  -2.755  0.193E+01  0.192E+01
  -2.730  0.617E+01  0.614E+01
  -2.705  0.113E+02  0.112E+02
  -2.680  0.683E+01  0.679E+01
  -2.655  0.515E+01  0.512E+01
  -2.630  0.597E+01  0.594E+01
  -2.605  0.812E+01  0.808E+01
  -2.580  0.837E+01  0.833E+01
  -2.555  0.231E+02  0.230E+02
  -2.530  0.235E+02  0.234E+02
  -2.505  0.128E+02  0.128E+02
  -2.480  0.117E+02  0.116E+02
  -2.455  0.106E+02  0.106E+02
  -2.430  0.197E+02  0.196E+02
  -2.405  0.215E+02  0.214E+02
  -2.380  0.194E+02  0.193E+02
  -2.355  0.929E+01  0.924E+01
  -2.330  0.209E+02  0.208E+02
  -2.305  0.172E+02  0.171E+02
  -2.280  0.778E+01  0.774E+01
  -2.255  0.106E+02  0.105E+02
  -2.230  0.150E+02  0.149E+02
  -2.205  0.434E+01  0.431E+01
  -2.180  0.236E+01  0.235E+01
  -2.155  0.191E+02  0.190E+02
  -2.130  0.424E+02  0.422E+02
  -2.105  0.259E+02  0.258E+02
  -2.080  0.377E+01  0.375E+01
  -2.055  0.510E+01  0.507E+01
  -2.030  0.361E+01  0.359E+01
  -2.005  0.351E+00  0.349E+00
  -1.980  0.216E+00  0.215E+00
  -1.955  0.292E+01  0.290E+01
  -1.930  0.546E+01  0.543E+01
  -1.905  0.247E+01  0.245E+01
  -1.880  0.120E+02  0.119E+02
  -1.855  0.210E+02  0.208E+02
  -1.830  0.628E+01  0.625E+01
  -1.805  0.286E+01  0.285E+01
  -1.780  0.393E+01  0.390E+01
  -1.755  0.137E+02  0.137E+02
  -1.730  0.197E+02  0.196E+02
  -1.705  0.241E+02  0.240E+02
  -1.680  0.977E+01  0.971E+01
  -1.655  0.596E+00  0.592E+00
  -1.630  0.578E-02  0.575E-02
  -1.605  0.832E-01  0.828E-01
  -1.580  0.140E+01  0.139E+01
  -1.555  0.528E+01  0.525E+01
  -1.530  0.156E+02  0.155E+02
  -1.505  0.250E+02  0.248E+02
  -1.480  0.134E+02  0.134E+02
  -1.455  0.155E+02  0.154E+02
  -1.430  0.236E+02  0.234E+02
  -1.405  0.260E+02  0.259E+02
  -1.380  0.177E+02  0.176E+02
  -1.355  0.182E+02  0.181E+02
  -1.330  0.227E+02  0.226E+02
  -1.305  0.175E+02  0.174E+02
  -1.280  0.165E+02  0.164E+02
  -1.255  0.162E+02  0.161E+02
  -1.230  0.146E+02  0.145E+02
  -1.205  0.131E+02  0.130E+02
  -1.180  0.244E+01  0.242E+01
  -1.155  0.170E+00  0.169E+00
  -1.130  0.196E+01  0.195E+01
  -1.105  0.565E+01  0.562E+01
  -1.080  0.289E+01  0.288E+01
  -1.055  0.733E+01  0.728E+01
  -1.030  0.106E+02  0.106E+02
  -1.005  0.922E+01  0.916E+01
  -0.980  0.269E+02  0.268E+02
  -0.955  0.346E+02  0.344E+02
  -0.930  0.228E+02  0.227E+02
  -0.905  0.147E+02  0.146E+02
  -0.880  0.129E+02  0.128E+02
  -0.855  0.191E+02  0.190E+02
  -0.830  0.163E+02  0.162E+02
  -0.805  0.230E+02  0.229E+02
  -0.780  0.224E+02  0.222E+02
  -0.755  0.158E+02  0.157E+02
  -0.730  0.147E+02  0.146E+02
  -0.705  0.458E+01  0.456E+01
  -0.680  0.115E+02  0.115E+02
  -0.655  0.257E+02  0.256E+02
  -0.630  0.194E+02  0.193E+02
  -0.605  0.149E+02  0.148E+02
  -0.580  0.136E+02  0.135E+02
  -0.555  0.694E+01  0.690E+01
  -0.530  0.125E+02  0.125E+02
  -0.505  0.245E+02  0.243E+02
  -0.480  0.298E+02  0.296E+02
  -0.455  0.204E+02  0.203E+02
  -0.430  0.245E+02  0.244E+02
  -0.405  0.269E+02  0.267E+02
  -0.380  0.867E+01  0.863E+01
  -0.355  0.613E+01  0.609E+01
  -0.330  0.208E+02  0.207E+02
  -0.305  0.241E+02  0.239E+02
  -0.280  0.717E+01  0.712E+01
  -0.255  0.833E+01  0.827E+01
  -0.230  0.192E+02  0.191E+02
  -0.205  0.205E+02  0.203E+02
  -0.180  0.136E+02  0.135E+02
  -0.155  0.171E+02  0.170E+02
  -0.130  0.200E+02  0.199E+02
  -0.105  0.178E+02  0.176E+02
  -0.080  0.712E+01  0.707E+01
  -0.055  0.258E+01  0.256E+01
  -0.030  0.824E+01  0.819E+01
  -0.005  0.140E+02  0.139E+02
   0.020  0.171E+02  0.170E+02
   0.045  0.261E+02  0.259E+02
   0.070  0.228E+02  0.226E+02
   0.095  0.325E+02  0.323E+02
   0.120  0.196E+02  0.195E+02
   0.145  0.155E+02  0.154E+02
   0.170  0.194E+02  0.193E+02
   0.195  0.205E+02  0.204E+02
   0.220  0.122E+02  0.122E+02
   0.245  0.209E+02  0.207E+02
   0.270  0.292E+02  0.290E+02
   0.295  0.936E+01  0.929E+01
   0.320  0.808E+00  0.801E+00
   0.345  0.438E+01  0.435E+01
   0.370  0.198E+02  0.197E+02
   0.395  0.156E+02  0.155E+02
   0.420  0.168E+02  0.167E+02
   0.445  0.350E+02  0.348E+02
   0.470  0.261E+02  0.259E+02
   0.495  0.118E+02  0.117E+02
   0.520  0.184E+02  0.183E+02
   0.545  0.210E+02  0.209E+02
   0.570  0.985E+01  0.977E+01
   0.595  0.272E+01  0.270E+01
   0.620  0.114E+02  0.114E+02
   0.645  0.236E+02  0.235E+02
   0.670  0.307E+02  0.305E+02
   0.695  0.284E+02  0.282E+02
   0.720  0.331E+02  0.329E+02
   0.745  0.273E+02  0.271E+02
   0.770  0.188E+02  0.187E+02
   0.795  0.280E+02  0.278E+02
   0.820  0.261E+02  0.259E+02
   0.845  0.105E+02  0.104E+02
   0.870  0.521E+01  0.518E+01
   0.895  0.515E+01  0.512E+01
   0.920  0.126E+02  0.125E+02
   0.945  0.403E+02  0.400E+02
   0.970  0.404E+02  0.401E+02
   0.995  0.355E+02  0.352E+02
   1.020  0.396E+02  0.393E+02
   1.045  0.293E+02  0.291E+02
   1.070  0.141E+02  0.140E+02
   1.095  0.142E+02  0.141E+02
   1.120  0.186E+02  0.184E+02
   1.145  0.197E+02  0.195E+02
   1.170  0.345E+02  0.343E+02
   1.195  0.304E+02  0.302E+02
   1.220  0.232E+02  0.231E+02
   1.245  0.306E+02  0.304E+02
   1.270  0.528E+02  0.524E+02
   1.295  0.567E+02  0.563E+02
   1.320  0.301E+02  0.299E+02
   1.345  0.203E+02  0.201E+02
   1.370  0.164E+02  0.163E+02
   1.395  0.164E+02  0.163E+02
   1.420  0.156E+02  0.155E+02
   1.445  0.213E+02  0.212E+02
   1.470  0.298E+02  0.296E+02
   1.495  0.169E+02  0.167E+02
   1.520  0.113E+02  0.112E+02
   1.545  0.152E+02  0.151E+02
   1.570  0.242E+02  0.240E+02
   1.595  0.208E+02  0.207E+02
   1.620  0.185E+02  0.184E+02
   1.645  0.327E+02  0.324E+02
   1.670  0.319E+02  0.317E+02
   1.695  0.375E+02  0.372E+02
   1.720  0.248E+02  0.246E+02
   1.745  0.914E+01  0.907E+01
   1.770  0.132E+02  0.131E+02
   1.795  0.234E+02  0.233E+02
   1.820  0.309E+02  0.306E+02
   1.845  0.264E+02  0.262E+02
   1.870  0.139E+02  0.138E+02
   1.895  0.233E+02  0.231E+02
   1.920  0.339E+02  0.335E+02
   1.945  0.418E+02  0.414E+02
   1.970  0.332E+02  0.329E+02
   1.995  0.201E+02  0.199E+02
   2.020  0.225E+02  0.223E+02
   2.045  0.324E+02  0.321E+02
   2.070  0.341E+02  0.339E+02
   2.095  0.941E+01  0.933E+01
   2.120  0.915E+00  0.907E+00
   2.145  0.336E+01  0.333E+01
   2.170  0.177E+02  0.176E+02
   2.195  0.291E+02  0.289E+02
   2.220  0.391E+02  0.387E+02
   2.245  0.477E+02  0.473E+02
   2.270  0.304E+02  0.301E+02
   2.295  0.273E+02  0.271E+02
   2.320  0.353E+02  0.349E+02
   2.345  0.253E+02  0.251E+02
   2.370  0.155E+02  0.154E+02
   2.395  0.154E+02  0.152E+02
   2.420  0.322E+02  0.319E+02
   2.445  0.309E+02  0.307E+02
   2.470  0.376E+02  0.373E+02
   2.495  0.406E+02  0.402E+02
   2.520  0.262E+02  0.259E+02
   2.545  0.260E+02  0.257E+02
   2.570  0.164E+02  0.162E+02
   2.595  0.151E+02  0.149E+02
   2.620  0.375E+01  0.370E+01
   2.645  0.653E+01  0.646E+01
   2.670  0.261E+02  0.258E+02
   2.695  0.277E+02  0.274E+02
   2.720  0.201E+02  0.199E+02
   2.745  0.206E+02  0.204E+02
   2.770  0.948E+01  0.937E+01
   2.795  0.101E+02  0.100E+02
   2.820  0.219E+02  0.216E+02
   2.845  0.232E+02  0.229E+02
   2.870  0.232E+02  0.230E+02
   2.895  0.240E+02  0.237E+02
   2.920  0.234E+02  0.231E+02
   2.945  0.258E+02  0.255E+02
   2.970  0.236E+02  0.234E+02
   2.995  0.210E+02  0.208E+02
   3.020  0.976E+01  0.964E+01
   3.045  0.652E+01  0.644E+01
   3.070  0.248E+02  0.245E+02
   3.095  0.287E+02  0.283E+02
   3.120  0.372E+02  0.367E+02
   3.145  0.394E+02  0.389E+02
   3.170  0.314E+02  0.310E+02
   3.195  0.189E+02  0.187E+02
   3.220  0.329E+02  0.326E+02
   3.245  0.393E+02  0.389E+02
   3.270  0.486E+02  0.481E+02
   3.295  0.378E+02  0.373E+02
   3.320  0.106E+02  0.105E+02
   3.345  0.668E+01  0.659E+01
   3.370  0.707E+01  0.698E+01
   3.395  0.433E+01  0.427E+01
   3.420  0.533E+01  0.525E+01
   3.445  0.142E+01  0.139E+01
   3.470  0.335E+01  0.328E+01
   3.495  0.107E+02  0.105E+02
   3.520  0.234E+02  0.231E+02
   3.545  0.246E+02  0.243E+02
   3.570  0.822E+01  0.809E+01
   3.595  0.482E+01  0.472E+01
   3.620  0.658E+01  0.646E+01
   3.645  0.292E+01  0.287E+01
   3.670  0.268E+01  0.264E+01
   3.695  0.168E+02  0.165E+02
   3.720  0.239E+02  0.236E+02
   3.745  0.180E+02  0.177E+02
   3.770  0.164E+02  0.161E+02
   3.795  0.197E+02  0.193E+02
   3.820  0.120E+02  0.118E+02
   3.845  0.104E+02  0.102E+02
   3.870  0.701E+01  0.689E+01
   3.895  0.125E+02  0.123E+02
   3.920  0.110E+02  0.108E+02
   3.945  0.781E+01  0.769E+01
   3.970  0.105E+02  0.103E+02
   3.995  0.938E+01  0.920E+01
   4.020  0.701E+01  0.688E+01
   4.045  0.113E+02  0.111E+02
   4.070  0.361E+01  0.355E+01
   4.095  0.157E+00  0.155E+00
   4.120  0.782E-01  0.768E-01
   4.145  0.247E+01  0.242E+01
   4.170  0.112E+02  0.109E+02
   4.195  0.961E+01  0.941E+01
   4.220  0.503E+01  0.491E+01
   4.245  0.957E+01  0.936E+01
   4.270  0.953E+01  0.932E+01
   4.295  0.697E+01  0.680E+01
   4.320  0.774E+01  0.756E+01
   4.345  0.766E+01  0.748E+01
   4.370  0.256E+01  0.250E+01
   4.395  0.176E+00  0.172E+00
   4.420  0.170E+01  0.166E+01
   4.445  0.102E+02  0.998E+01
   4.470  0.130E+02  0.127E+02
   4.495  0.537E+01  0.523E+01
   4.520  0.410E+01  0.399E+01
   4.545  0.438E+01  0.426E+01
   4.570  0.114E+01  0.111E+01
   4.595  0.514E-01  0.500E-01
   4.620  0.289E-02  0.281E-02
   4.645  0.242E+00  0.235E+00
   4.670  0.309E+01  0.301E+01
   4.695  0.537E+01  0.521E+01
   4.720  0.146E+01  0.142E+01
   4.745  0.195E+01  0.189E+01
   4.770  0.248E+01  0.241E+01
   4.795  0.810E+00  0.785E+00
   4.820  0.721E+00  0.697E+00
   4.845  0.798E+00  0.771E+00
   4.870  0.140E+01  0.135E+01
   4.895  0.411E+00  0.397E+00
   4.920  0.164E-01  0.159E-01
   4.945  0.888E-04  0.858E-04
   4.970  0.649E-07  0.628E-07
   4.995  0.643E-11  0.621E-11
   5.020  0.861E-16  0.832E-16
   5.045  0.000E+00  0.000E+00
   5.070  0.000E+00  0.000E+00
   5.095  0.000E+00  0.000E+00
   5.120  0.000E+00  0.000E+00
   5.145  0.000E+00  0.000E+00
   5.170  0.000E+00  0.000E+00
   5.195  0.000E+00  0.000E+00
   5.220  0.000E+00  0.000E+00
   5.245  0.000E+00  0.000E+00
   5.270  0.000E+00  0.000E+00
   5.295  0.000E+00  0.000E+00
   5.320  0.000E+00  0.000E+00
   5.345  0.000E+00  0.000E+00
   5.370  0.000E+00  0.000E+00
   5.395  0.000E+00  0.000E+00
   5.420  0.000E+00  0.000E+00
   5.445  0.000E+00  0.000E+00
   5.470  0.000E+00  0.000E+00
   5.495  0.000E+00  0.000E+00
   5.520  0.000E+00  0.000E+00
   5.545  0.000E+00  0.000E+00
   5.570  0.000E+00  0.000E+00
   5.595  0.000E+00  0.000E+00
   5.620  0.000E+00  0.000E+00
   5.645  0.000E+00  0.000E+00
   5.670  0.311E-17  0.286E-17
   5.695  0.440E-12  0.405E-12
   5.720  0.843E-08  0.775E-08
   5.745  0.219E-04  0.201E-04
   5.770  0.768E-02  0.706E-02
   5.795  0.367E+00  0.337E+00
   5.820  0.247E+01  0.227E+01
   5.845  0.317E+01  0.290E+01
   5.870  0.272E+01  0.248E+01
   5.895  0.391E+01  0.353E+01
   5.920  0.326E+01  0.296E+01
   5.945  0.304E+01  0.284E+01
   5.970  0.101E+01  0.944E+00
   5.995  0.482E-01  0.453E-01
   6.020  0.314E-03  0.295E-03
   6.045  0.277E-06  0.260E-06
   6.070  0.151E-05  0.127E-05
   6.095  0.123E-02  0.104E-02
   6.120  0.136E+00  0.115E+00
   6.145  0.204E+01  0.172E+01
   6.170  0.415E+01  0.349E+01
   6.195  0.154E+01  0.134E+01
   6.220  0.367E+01  0.346E+01
   6.245  0.871E+01  0.804E+01
   6.270  0.119E+02  0.107E+02
   6.295  0.117E+02  0.103E+02
   6.320  0.165E+02  0.146E+02
   6.345  0.927E+01  0.825E+01
   6.370  0.738E+01  0.654E+01
   6.395  0.138E+02  0.122E+02
   6.420  0.135E+02  0.116E+02
   6.445  0.531E+01  0.453E+01
   6.470  0.440E+00  0.380E+00
   6.495  0.268E+01  0.239E+01
   6.520  0.163E+02  0.142E+02
   6.545  0.288E+02  0.249E+02
   6.570  0.132E+02  0.115E+02
   6.595  0.653E+01  0.569E+01
   6.620  0.247E+01  0.216E+01
   6.645  0.294E+01  0.275E+01
   6.670  0.144E+02  0.131E+02
   6.695  0.184E+02  0.164E+02
   6.720  0.661E+01  0.574E+01
   6.745  0.131E+02  0.111E+02
   6.770  0.184E+02  0.161E+02
   6.795  0.150E+02  0.129E+02
   6.820  0.100E+02  0.839E+01
   6.845  0.253E+01  0.213E+01
   6.870  0.451E+01  0.380E+01
   6.895  0.130E+02  0.110E+02
   6.920  0.180E+02  0.158E+02
   6.945  0.172E+02  0.152E+02
   6.970  0.721E+01  0.660E+01
   6.995  0.606E+01  0.551E+01
   7.020  0.616E+01  0.521E+01
   7.045  0.287E+01  0.241E+01
   7.070  0.688E+01  0.595E+01
   7.095  0.235E+02  0.209E+02
   7.120  0.225E+02  0.206E+02
   7.145  0.116E+02  0.106E+02
   7.170  0.196E+02  0.172E+02
   7.195  0.158E+02  0.135E+02
   7.220  0.188E+02  0.157E+02
   7.245  0.208E+02  0.181E+02
   7.270  0.344E+02  0.299E+02
   7.295  0.434E+02  0.372E+02
   7.320  0.160E+02  0.137E+02
   7.345  0.354E+01  0.310E+01
   7.370  0.112E+02  0.100E+02
   7.395  0.281E+02  0.249E+02
   7.420  0.429E+02  0.383E+02
   7.445  0.305E+02  0.271E+02
   7.470  0.137E+02  0.119E+02
   7.495  0.226E+01  0.200E+01
   7.520  0.744E+01  0.695E+01
   7.545  0.120E+02  0.110E+02
   7.570  0.174E+02  0.152E+02
   7.595  0.266E+02  0.231E+02
   7.620  0.231E+02  0.198E+02
   7.645  0.125E+02  0.106E+02
   7.670  0.973E+01  0.798E+01
   7.695  0.177E+02  0.150E+02
   7.720  0.239E+02  0.211E+02
   7.745  0.104E+02  0.924E+01
   7.770  0.846E+01  0.756E+01
   7.795  0.607E+01  0.542E+01
   7.820  0.100E+02  0.887E+01
   7.845  0.130E+02  0.111E+02
   7.870  0.551E+01  0.448E+01
   7.895  0.266E+01  0.224E+01
   7.920  0.207E+02  0.177E+02
   7.945  0.347E+02  0.296E+02
   7.970  0.105E+02  0.849E+01
   7.995  0.285E+01  0.179E+01
   8.020  0.137E+01  0.103E+01
   8.045  0.414E+01  0.342E+01
   8.070  0.527E+01  0.436E+01
   8.095  0.864E+01  0.717E+01
   8.120  0.335E+01  0.278E+01
   8.145  0.179E+00  0.149E+00
   8.170  0.130E-02  0.108E-02
   8.195  0.127E-05  0.106E-05
