# E(eV)   ldos(E)   pdos(E)_1   pdos(E)_2   
  -7.905  0.743E-05  0.371E-05  0.371E-05
  -7.880  0.134E-02  0.671E-03  0.671E-03
  -7.855  0.412E-01  0.206E-01  0.206E-01
  -7.830  0.295E+00  0.148E+00  0.148E+00
  -7.805  0.745E+00  0.373E+00  0.373E+00
  -7.780  0.675E+00  0.337E+00  0.337E+00
  -7.755  0.331E+00  0.166E+00  0.166E+00
  -7.730  0.415E+00  0.207E+00  0.207E+00
  -7.705  0.482E+00  0.241E+00  0.241E+00
  -7.680  0.245E+00  0.123E+00  0.123E+00
  -7.655  0.145E+00  0.724E-01  0.724E-01
  -7.630  0.252E+00  0.126E+00  0.126E+00
  -7.605  0.265E+00  0.132E+00  0.132E+00
  -7.580  0.294E+00  0.147E+00  0.147E+00
  -7.555  0.144E+00  0.721E-01  0.721E-01
  -7.530  0.150E+00  0.748E-01  0.748E-01
  -7.505  0.249E+00  0.124E+00  0.124E+00
  -7.480  0.257E+00  0.129E+00  0.129E+00
  -7.455  0.310E+00  0.155E+00  0.155E+00
  -7.430  0.275E+00  0.138E+00  0.138E+00
  -7.405  0.219E+00  0.110E+00  0.110E+00
  -7.380  0.853E-01  0.426E-01  0.426E-01
  -7.355  0.112E+00  0.560E-01  0.560E-01
  -7.330  0.197E+00  0.986E-01  0.986E-01
  -7.305  0.125E+00  0.627E-01  0.627E-01
  -7.280  0.135E+00  0.677E-01  0.677E-01
  -7.255  0.234E+00  0.117E+00  0.117E+00
  -7.230  0.137E+00  0.683E-01  0.683E-01
  -7.205  0.374E-01  0.187E-01  0.187E-01
  -7.180  0.122E-01  0.610E-02  0.610E-02
  -7.155  0.103E+00  0.517E-01  0.517E-01
  -7.130  0.300E+00  0.150E+00  0.150E+00
  -7.105  0.202E+00  0.101E+00  0.101E+00
  -7.080  0.237E-01  0.118E-01  0.118E-01
  -7.055  0.176E-02  0.878E-03  0.878E-03
  -7.030  0.439E-01  0.219E-01  0.219E-01
  -7.005  0.236E+00  0.118E+00  0.118E+00
  -6.980  0.250E+00  0.125E+00  0.125E+00
  -6.955  0.103E+00  0.517E-01  0.517E-01
  -6.930  0.185E+00  0.923E-01  0.923E-01
  -6.905  0.240E+00  0.120E+00  0.120E+00
  -6.880  0.188E+00  0.941E-01  0.941E-01
  -6.855  0.743E-01  0.371E-01  0.371E-01
  -6.830  0.111E+00  0.556E-01  0.556E-01
  -6.805  0.141E+00  0.706E-01  0.706E-01
  -6.780  0.813E-01  0.406E-01  0.406E-01
  -6.755  0.742E-01  0.371E-01  0.371E-01
  -6.730  0.835E-01  0.418E-01  0.418E-01
  -6.705  0.993E-01  0.496E-01  0.496E-01
  -6.680  0.231E+00  0.116E+00  0.116E+00
  -6.655  0.104E+00  0.521E-01  0.521E-01
  -6.630  0.826E-01  0.413E-01  0.413E-01
  -6.605  0.174E+00  0.868E-01  0.868E-01
  -6.580  0.123E+00  0.614E-01  0.614E-01
  -6.555  0.520E-01  0.260E-01  0.260E-01
  -6.530  0.619E-01  0.309E-01  0.309E-01
  -6.505  0.110E+00  0.549E-01  0.549E-01
  -6.480  0.761E-01  0.380E-01  0.380E-01
  -6.455  0.991E-01  0.495E-01  0.495E-01
  -6.430  0.202E+00  0.101E+00  0.101E+00
  -6.405  0.233E+00  0.116E+00  0.116E+00
  -6.380  0.693E-01  0.347E-01  0.347E-01
  -6.355  0.900E-02  0.450E-02  0.450E-02
  -6.330  0.356E-02  0.178E-02  0.178E-02
  -6.305  0.476E-01  0.238E-01  0.238E-01
  -6.280  0.130E+00  0.651E-01  0.651E-01
  -6.255  0.708E-01  0.354E-01  0.354E-01
  -6.230  0.197E-01  0.984E-02  0.984E-02
  -6.205  0.558E-01  0.279E-01  0.279E-01
  -6.180  0.683E-01  0.342E-01  0.342E-01
  -6.155  0.163E+00  0.817E-01  0.817E-01
  -6.130  0.174E+00  0.870E-01  0.870E-01
  -6.105  0.135E+00  0.674E-01  0.674E-01
  -6.080  0.757E-01  0.379E-01  0.379E-01
  -6.055  0.105E+00  0.526E-01  0.526E-01
  -6.030  0.567E-01  0.283E-01  0.283E-01
  -6.005  0.747E-01  0.374E-01  0.374E-01
  -5.980  0.125E+00  0.627E-01  0.627E-01
  -5.955  0.763E-01  0.381E-01  0.381E-01
  -5.930  0.245E-01  0.123E-01  0.123E-01
  -5.905  0.209E-01  0.104E-01  0.104E-01
  -5.880  0.808E-01  0.404E-01  0.404E-01
  -5.855  0.183E+00  0.915E-01  0.915E-01
  -5.830  0.111E+00  0.557E-01  0.557E-01
  -5.805  0.139E+00  0.693E-01  0.693E-01
  -5.780  0.201E+00  0.101E+00  0.101E+00
  -5.755  0.786E-01  0.393E-01  0.393E-01
  -5.730  0.295E-01  0.147E-01  0.147E-01
  -5.705  0.127E+00  0.634E-01  0.634E-01
  -5.680  0.116E+00  0.582E-01  0.582E-01
  -5.655  0.186E-01  0.930E-02  0.930E-02
  -5.630  0.247E-02  0.124E-02  0.124E-02
  -5.605  0.400E-01  0.200E-01  0.200E-01
  -5.580  0.131E+00  0.657E-01  0.657E-01
  -5.555  0.138E+00  0.690E-01  0.690E-01
  -5.530  0.565E-01  0.283E-01  0.283E-01
  -5.505  0.426E-01  0.213E-01  0.213E-01
  -5.480  0.142E+00  0.709E-01  0.709E-01
  -5.455  0.864E-01  0.432E-01  0.432E-01
  -5.430  0.984E-02  0.492E-02  0.492E-02
  -5.405  0.685E-02  0.343E-02  0.343E-02
  -5.380  0.849E-01  0.424E-01  0.424E-01
  -5.355  0.157E+00  0.787E-01  0.787E-01
  -5.330  0.435E-01  0.217E-01  0.217E-01
  -5.305  0.107E-01  0.535E-02  0.535E-02
  -5.280  0.495E-01  0.248E-01  0.248E-01
  -5.255  0.445E-01  0.223E-01  0.223E-01
  -5.230  0.304E-01  0.152E-01  0.152E-01
  -5.205  0.192E-01  0.958E-02  0.958E-02
  -5.180  0.677E-01  0.338E-01  0.338E-01
  -5.155  0.105E+00  0.523E-01  0.523E-01
  -5.130  0.411E-01  0.205E-01  0.205E-01
  -5.105  0.658E-01  0.329E-01  0.329E-01
  -5.080  0.768E-01  0.384E-01  0.384E-01
  -5.055  0.218E+00  0.109E+00  0.109E+00
  -5.030  0.181E+00  0.903E-01  0.903E-01
  -5.005  0.322E-01  0.161E-01  0.161E-01
  -4.980  0.298E-01  0.149E-01  0.149E-01
  -4.955  0.120E+00  0.602E-01  0.602E-01
  -4.930  0.130E+00  0.648E-01  0.648E-01
  -4.905  0.721E-01  0.360E-01  0.360E-01
  -4.880  0.926E-01  0.463E-01  0.463E-01
  -4.855  0.283E+00  0.142E+00  0.142E+00
  -4.830  0.237E+00  0.118E+00  0.118E+00
  -4.805  0.593E-01  0.297E-01  0.297E-01
  -4.780  0.115E+00  0.575E-01  0.575E-01
  -4.755  0.861E-01  0.431E-01  0.431E-01
  -4.730  0.675E-01  0.338E-01  0.338E-01
  -4.705  0.322E-01  0.161E-01  0.161E-01
  -4.680  0.728E-02  0.364E-02  0.364E-02
  -4.655  0.669E-01  0.334E-01  0.334E-01
  -4.630  0.200E+00  0.998E-01  0.998E-01
  -4.605  0.145E+00  0.723E-01  0.723E-01
  -4.580  0.607E-01  0.303E-01  0.303E-01
  -4.555  0.199E+00  0.996E-01  0.996E-01
  -4.530  0.182E+00  0.912E-01  0.912E-01
  -4.505  0.177E+00  0.887E-01  0.887E-01
  -4.480  0.113E+00  0.566E-01  0.566E-01
  -4.455  0.167E-01  0.834E-02  0.834E-02
  -4.430  0.141E-01  0.705E-02  0.705E-02
  -4.405  0.107E+00  0.535E-01  0.535E-01
  -4.380  0.160E+00  0.798E-01  0.798E-01
  -4.355  0.175E+00  0.874E-01  0.874E-01
  -4.330  0.217E+00  0.108E+00  0.108E+00
  -4.305  0.207E+00  0.104E+00  0.104E+00
  -4.280  0.609E-01  0.304E-01  0.304E-01
  -4.255  0.147E+00  0.735E-01  0.735E-01
  -4.230  0.401E+00  0.201E+00  0.201E+00
  -4.205  0.247E+00  0.124E+00  0.124E+00
  -4.180  0.248E-01  0.124E-01  0.124E-01
  -4.155  0.364E-03  0.182E-03  0.182E-03
  -4.130  0.158E-05  0.792E-06  0.792E-06
  -4.105  0.218E-03  0.109E-03  0.109E-03
  -4.080  0.822E-02  0.411E-02  0.411E-02
  -4.055  0.654E-01  0.327E-01  0.327E-01
  -4.030  0.230E+00  0.115E+00  0.115E+00
  -4.005  0.230E+00  0.115E+00  0.115E+00
  -3.980  0.249E+00  0.125E+00  0.125E+00
  -3.955  0.355E+00  0.178E+00  0.178E+00
  -3.930  0.156E+00  0.778E-01  0.778E-01
  -3.905  0.722E-01  0.361E-01  0.361E-01
  -3.880  0.112E+00  0.562E-01  0.562E-01
  -3.855  0.148E+00  0.740E-01  0.740E-01
  -3.830  0.154E+00  0.769E-01  0.769E-01
  -3.805  0.146E+00  0.729E-01  0.729E-01
  -3.780  0.156E+00  0.779E-01  0.779E-01
  -3.755  0.123E+00  0.615E-01  0.615E-01
  -3.730  0.153E+00  0.767E-01  0.767E-01
  -3.705  0.242E+00  0.121E+00  0.121E+00
  -3.680  0.187E+00  0.935E-01  0.935E-01
  -3.655  0.167E+00  0.836E-01  0.836E-01
  -3.630  0.112E+00  0.561E-01  0.561E-01
  -3.605  0.175E+00  0.875E-01  0.875E-01
  -3.580  0.968E-01  0.484E-01  0.484E-01
  -3.555  0.443E-01  0.221E-01  0.221E-01
  -3.530  0.646E-01  0.323E-01  0.323E-01
  -3.505  0.104E+00  0.522E-01  0.522E-01
  -3.480  0.105E+00  0.523E-01  0.523E-01
  -3.455  0.409E-01  0.204E-01  0.204E-01
  -3.430  0.972E-01  0.486E-01  0.486E-01
  -3.405  0.237E+00  0.119E+00  0.119E+00
  -3.380  0.309E+00  0.155E+00  0.155E+00
  -3.355  0.257E+00  0.129E+00  0.129E+00
  -3.330  0.139E+00  0.696E-01  0.696E-01
  -3.305  0.122E+00  0.612E-01  0.612E-01
  -3.280  0.122E+00  0.611E-01  0.611E-01
  -3.255  0.232E+00  0.116E+00  0.116E+00
  -3.230  0.226E+00  0.113E+00  0.113E+00
  -3.205  0.882E-01  0.441E-01  0.441E-01
  -3.180  0.964E-02  0.482E-02  0.482E-02
  -3.155  0.325E-01  0.162E-01  0.162E-01
  -3.130  0.134E+00  0.671E-01  0.671E-01
  -3.105  0.121E+00  0.605E-01  0.605E-01
  -3.080  0.552E-01  0.276E-01  0.276E-01
  -3.055  0.755E-01  0.377E-01  0.377E-01
  -3.030  0.122E+00  0.609E-01  0.609E-01
  -3.005  0.867E-01  0.434E-01  0.434E-01
  -2.980  0.412E-01  0.206E-01  0.206E-01
  -2.955  0.939E-01  0.470E-01  0.470E-01
  -2.930  0.695E-01  0.348E-01  0.348E-01
  -2.905  0.535E-01  0.267E-01  0.267E-01
  -2.880  0.467E-01  0.233E-01  0.233E-01
  -2.855  0.221E+00  0.111E+00  0.111E+00
  -2.830  0.264E+00  0.132E+00  0.132E+00
  -2.805  0.233E+00  0.117E+00  0.117E+00
  -2.780  0.144E+00  0.721E-01  0.721E-01
  -2.755  0.190E-01  0.951E-02  0.951E-02
  -2.730  0.608E-01  0.304E-01  0.304E-01
  -2.705  0.111E+00  0.556E-01  0.556E-01
  -2.680  0.669E-01  0.335E-01  0.335E-01
  -2.655  0.496E-01  0.248E-01  0.248E-01
  -2.630  0.524E-01  0.262E-01  0.262E-01
  -2.605  0.696E-01  0.348E-01  0.348E-01
  -2.580  0.701E-01  0.351E-01  0.351E-01
  -2.555  0.227E+00  0.114E+00  0.114E+00
  -2.530  0.241E+00  0.121E+00  0.121E+00
  -2.505  0.136E+00  0.679E-01  0.679E-01
  -2.480  0.127E+00  0.635E-01  0.635E-01
  -2.455  0.100E+00  0.502E-01  0.502E-01
  -2.430  0.175E+00  0.874E-01  0.874E-01
  -2.405  0.185E+00  0.924E-01  0.924E-01
  -2.380  0.170E+00  0.852E-01  0.852E-01
  -2.355  0.839E-01  0.420E-01  0.420E-01
  -2.330  0.191E+00  0.956E-01  0.956E-01
  -2.305  0.160E+00  0.799E-01  0.799E-01
  -2.280  0.763E-01  0.382E-01  0.382E-01
  -2.255  0.946E-01  0.473E-01  0.473E-01
  -2.230  0.127E+00  0.637E-01  0.637E-01
  -2.205  0.366E-01  0.183E-01  0.183E-01
  -2.180  0.204E-01  0.102E-01  0.102E-01
  -2.155  0.169E+00  0.843E-01  0.843E-01
  -2.130  0.384E+00  0.192E+00  0.192E+00
  -2.105  0.236E+00  0.118E+00  0.118E+00
  -2.080  0.335E-01  0.168E-01  0.168E-01
  -2.055  0.428E-01  0.214E-01  0.214E-01
  -2.030  0.303E-01  0.152E-01  0.152E-01
  -2.005  0.294E-02  0.147E-02  0.147E-02
  -1.980  0.257E-03  0.128E-03  0.128E-03
  -1.955  0.301E-02  0.150E-02  0.150E-02
  -1.930  0.566E-02  0.283E-02  0.283E-02
  -1.905  0.650E-02  0.325E-02  0.325E-02
  -1.880  0.714E-01  0.357E-01  0.357E-01
  -1.855  0.150E+00  0.748E-01  0.748E-01
  -1.830  0.460E-01  0.230E-01  0.230E-01
  -1.805  0.247E-02  0.124E-02  0.124E-02
  -1.780  0.153E-01  0.765E-02  0.765E-02
  -1.755  0.827E-01  0.413E-01  0.413E-01
  -1.730  0.106E+00  0.531E-01  0.531E-01
  -1.705  0.166E+00  0.832E-01  0.832E-01
  -1.680  0.749E-01  0.374E-01  0.374E-01
  -1.655  0.481E-02  0.240E-02  0.240E-02
  -1.630  0.451E-04  0.226E-04  0.226E-04
  -1.605  0.314E-03  0.157E-03  0.157E-03
  -1.580  0.499E-02  0.250E-02  0.250E-02
  -1.555  0.152E-01  0.758E-02  0.758E-02
  -1.530  0.825E-01  0.412E-01  0.412E-01
  -1.505  0.195E+00  0.974E-01  0.974E-01
  -1.480  0.114E+00  0.571E-01  0.571E-01
  -1.455  0.122E+00  0.609E-01  0.609E-01
  -1.430  0.133E+00  0.663E-01  0.663E-01
  -1.405  0.120E+00  0.600E-01  0.600E-01
  -1.380  0.444E-01  0.222E-01  0.222E-01
  -1.355  0.699E-01  0.349E-01  0.349E-01
  -1.330  0.136E+00  0.681E-01  0.681E-01
  -1.305  0.102E+00  0.508E-01  0.508E-01
  -1.280  0.123E+00  0.617E-01  0.617E-01
  -1.255  0.140E+00  0.700E-01  0.700E-01
  -1.230  0.121E+00  0.603E-01  0.603E-01
  -1.205  0.107E+00  0.536E-01  0.536E-01
  -1.180  0.199E-01  0.993E-02  0.993E-02
  -1.155  0.102E-02  0.509E-03  0.509E-03
  -1.130  0.815E-02  0.408E-02  0.408E-02
  -1.105  0.235E-01  0.118E-01  0.118E-01
  -1.080  0.143E-01  0.715E-02  0.715E-02
  -1.055  0.545E-01  0.272E-01  0.272E-01
  -1.030  0.798E-01  0.399E-01  0.399E-01
  -1.005  0.541E-01  0.270E-01  0.270E-01
  -0.980  0.102E+00  0.508E-01  0.508E-01
  -0.955  0.125E+00  0.624E-01  0.624E-01
  -0.930  0.860E-01  0.430E-01  0.430E-01
  -0.905  0.446E-01  0.223E-01  0.223E-01
  -0.880  0.738E-01  0.369E-01  0.369E-01
  -0.855  0.950E-01  0.475E-01  0.475E-01
  -0.830  0.414E-01  0.207E-01  0.207E-01
  -0.805  0.767E-01  0.384E-01  0.384E-01
  -0.780  0.115E+00  0.577E-01  0.577E-01
  -0.755  0.815E-01  0.408E-01  0.408E-01
  -0.730  0.661E-01  0.331E-01  0.331E-01
  -0.705  0.192E-01  0.960E-02  0.960E-02
  -0.680  0.643E-01  0.322E-01  0.322E-01
  -0.655  0.144E+00  0.721E-01  0.721E-01
  -0.630  0.957E-01  0.479E-01  0.479E-01
  -0.605  0.656E-01  0.328E-01  0.328E-01
  -0.580  0.727E-01  0.364E-01  0.364E-01
  -0.555  0.276E-01  0.138E-01  0.138E-01
  -0.530  0.227E-01  0.114E-01  0.114E-01
  -0.505  0.108E+00  0.539E-01  0.539E-01
  -0.480  0.163E+00  0.816E-01  0.816E-01
  -0.455  0.130E+00  0.652E-01  0.652E-01
  -0.430  0.120E+00  0.602E-01  0.602E-01
  -0.405  0.757E-01  0.378E-01  0.378E-01
  -0.380  0.171E-01  0.856E-02  0.856E-02
  -0.355  0.181E-01  0.904E-02  0.904E-02
  -0.330  0.886E-01  0.443E-01  0.443E-01
  -0.305  0.111E+00  0.556E-01  0.556E-01
  -0.280  0.339E-01  0.170E-01  0.170E-01
  -0.255  0.602E-01  0.301E-01  0.301E-01
  -0.230  0.135E+00  0.676E-01  0.676E-01
  -0.205  0.938E-01  0.469E-01  0.469E-01
  -0.180  0.341E-01  0.170E-01  0.170E-01
  -0.155  0.738E-01  0.369E-01  0.369E-01
  -0.130  0.957E-01  0.479E-01  0.479E-01
  -0.105  0.928E-01  0.464E-01  0.464E-01
  -0.080  0.453E-01  0.226E-01  0.226E-01
  -0.055  0.138E-01  0.689E-02  0.689E-02
  -0.030  0.372E-01  0.186E-01  0.186E-01
  -0.005  0.606E-01  0.303E-01  0.303E-01
   0.020  0.779E-01  0.390E-01  0.390E-01
   0.045  0.128E+00  0.638E-01  0.638E-01
   0.070  0.984E-01  0.492E-01  0.492E-01
   0.095  0.107E+00  0.535E-01  0.535E-01
   0.120  0.698E-01  0.349E-01  0.349E-01
   0.145  0.827E-01  0.414E-01  0.414E-01
   0.170  0.717E-01  0.359E-01  0.359E-01
   0.195  0.480E-01  0.240E-01  0.240E-01
   0.220  0.215E-01  0.108E-01  0.108E-01
   0.245  0.666E-01  0.333E-01  0.333E-01
   0.270  0.968E-01  0.484E-01  0.484E-01
   0.295  0.313E-01  0.157E-01  0.157E-01
   0.320  0.357E-02  0.179E-02  0.179E-02
   0.345  0.192E-01  0.958E-02  0.958E-02
   0.370  0.889E-01  0.444E-01  0.444E-01
   0.395  0.697E-01  0.348E-01  0.348E-01
   0.420  0.616E-01  0.308E-01  0.308E-01
   0.445  0.131E+00  0.655E-01  0.655E-01
   0.470  0.868E-01  0.434E-01  0.434E-01
   0.495  0.204E-01  0.102E-01  0.102E-01
   0.520  0.460E-01  0.230E-01  0.230E-01
   0.545  0.629E-01  0.314E-01  0.314E-01
   0.570  0.358E-01  0.179E-01  0.179E-01
   0.595  0.117E-01  0.587E-02  0.587E-02
   0.620  0.443E-01  0.221E-01  0.221E-01
   0.645  0.473E-01  0.236E-01  0.236E-01
   0.670  0.672E-01  0.336E-01  0.336E-01
   0.695  0.927E-01  0.464E-01  0.464E-01
   0.720  0.100E+00  0.502E-01  0.502E-01
   0.745  0.905E-01  0.453E-01  0.453E-01
   0.770  0.447E-01  0.223E-01  0.223E-01
   0.795  0.754E-01  0.377E-01  0.377E-01
   0.820  0.696E-01  0.348E-01  0.348E-01
   0.845  0.231E-01  0.116E-01  0.116E-01
   0.870  0.204E-02  0.102E-02  0.102E-02
   0.895  0.230E-02  0.115E-02  0.115E-02
   0.920  0.316E-01  0.158E-01  0.158E-01
   0.945  0.121E+00  0.603E-01  0.603E-01
   0.970  0.132E+00  0.660E-01  0.660E-01
   0.995  0.829E-01  0.415E-01  0.415E-01
   1.020  0.106E+00  0.529E-01  0.529E-01
   1.045  0.832E-01  0.416E-01  0.416E-01
   1.070  0.205E-01  0.102E-01  0.102E-01
   1.095  0.367E-01  0.184E-01  0.184E-01
   1.120  0.669E-01  0.334E-01  0.334E-01
   1.145  0.202E-01  0.101E-01  0.101E-01
   1.170  0.244E-01  0.122E-01  0.122E-01
   1.195  0.628E-01  0.314E-01  0.314E-01
   1.220  0.427E-01  0.213E-01  0.213E-01
   1.245  0.539E-01  0.270E-01  0.270E-01
   1.270  0.975E-01  0.487E-01  0.487E-01
   1.295  0.134E+00  0.668E-01  0.668E-01
   1.320  0.698E-01  0.349E-01  0.349E-01
   1.345  0.661E-01  0.330E-01  0.330E-01
   1.370  0.351E-01  0.175E-01  0.175E-01
   1.395  0.273E-01  0.136E-01  0.136E-01
   1.420  0.278E-01  0.139E-01  0.139E-01
   1.445  0.197E-01  0.987E-02  0.987E-02
   1.470  0.381E-01  0.191E-01  0.191E-01
   1.495  0.447E-01  0.223E-01  0.223E-01
   1.520  0.345E-01  0.172E-01  0.172E-01
   1.545  0.200E-01  0.100E-01  0.100E-01
   1.570  0.506E-01  0.253E-01  0.253E-01
   1.595  0.436E-01  0.218E-01  0.218E-01
   1.620  0.393E-01  0.196E-01  0.196E-01
   1.645  0.544E-01  0.272E-01  0.272E-01
   1.670  0.570E-01  0.285E-01  0.285E-01
   1.695  0.387E-01  0.193E-01  0.193E-01
   1.720  0.210E-01  0.105E-01  0.105E-01
   1.745  0.438E-02  0.219E-02  0.219E-02
   1.770  0.225E-02  0.113E-02  0.113E-02
   1.795  0.626E-02  0.313E-02  0.313E-02
   1.820  0.371E-01  0.185E-01  0.185E-01
   1.845  0.407E-01  0.204E-01  0.204E-01
   1.870  0.114E-01  0.572E-02  0.572E-02
   1.895  0.405E-01  0.203E-01  0.203E-01
   1.920  0.924E-01  0.462E-01  0.462E-01
   1.945  0.121E+00  0.605E-01  0.605E-01
   1.970  0.944E-01  0.472E-01  0.472E-01
   1.995  0.409E-01  0.204E-01  0.204E-01
   2.020  0.275E-01  0.137E-01  0.137E-01
   2.045  0.200E-01  0.100E-01  0.100E-01
   2.070  0.195E-01  0.976E-02  0.976E-02
   2.095  0.531E-02  0.266E-02  0.266E-02
   2.120  0.481E-03  0.241E-03  0.241E-03
   2.145  0.825E-03  0.412E-03  0.412E-03
   2.170  0.370E-02  0.185E-02  0.185E-02
   2.195  0.205E-01  0.102E-01  0.102E-01
   2.220  0.690E-01  0.345E-01  0.345E-01
   2.245  0.705E-01  0.352E-01  0.352E-01
   2.270  0.661E-01  0.330E-01  0.330E-01
   2.295  0.485E-01  0.242E-01  0.242E-01
   2.320  0.588E-01  0.294E-01  0.294E-01
   2.345  0.425E-01  0.212E-01  0.212E-01
   2.370  0.921E-02  0.461E-02  0.461E-02
   2.395  0.126E-01  0.631E-02  0.631E-02
   2.420  0.201E-01  0.101E-01  0.101E-01
   2.445  0.909E-02  0.454E-02  0.454E-02
   2.470  0.242E-01  0.121E-01  0.121E-01
   2.495  0.384E-01  0.192E-01  0.192E-01
   2.520  0.366E-01  0.183E-01  0.183E-01
   2.545  0.282E-01  0.141E-01  0.141E-01
   2.570  0.171E-01  0.853E-02  0.853E-02
   2.595  0.259E-01  0.129E-01  0.129E-01
   2.620  0.932E-02  0.466E-02  0.466E-02
   2.645  0.873E-02  0.437E-02  0.437E-02
   2.670  0.341E-01  0.170E-01  0.170E-01
   2.695  0.238E-01  0.119E-01  0.119E-01
   2.720  0.409E-02  0.204E-02  0.204E-02
   2.745  0.567E-02  0.283E-02  0.283E-02
   2.770  0.836E-02  0.418E-02  0.418E-02
   2.795  0.126E-01  0.632E-02  0.632E-02
   2.820  0.330E-01  0.165E-01  0.165E-01
   2.845  0.341E-01  0.170E-01  0.170E-01
   2.870  0.317E-01  0.158E-01  0.158E-01
   2.895  0.488E-01  0.244E-01  0.244E-01
   2.920  0.373E-01  0.186E-01  0.186E-01
   2.945  0.331E-01  0.166E-01  0.166E-01
   2.970  0.243E-01  0.121E-01  0.121E-01
   2.995  0.198E-01  0.992E-02  0.992E-02
   3.020  0.983E-02  0.491E-02  0.491E-02
   3.045  0.680E-02  0.340E-02  0.340E-02
   3.070  0.236E-01  0.118E-01  0.118E-01
   3.095  0.220E-01  0.110E-01  0.110E-01
   3.120  0.204E-01  0.102E-01  0.102E-01
   3.145  0.110E-01  0.552E-02  0.552E-02
   3.170  0.480E-02  0.240E-02  0.240E-02
   3.195  0.287E-02  0.144E-02  0.144E-02
   3.220  0.897E-02  0.448E-02  0.448E-02
   3.245  0.101E-01  0.507E-02  0.507E-02
   3.270  0.126E-01  0.629E-02  0.629E-02
   3.295  0.160E-01  0.802E-02  0.802E-02
   3.320  0.474E-02  0.237E-02  0.237E-02
   3.345  0.988E-03  0.494E-03  0.494E-03
   3.370  0.952E-03  0.476E-03  0.476E-03
   3.395  0.173E-03  0.865E-04  0.865E-04
   3.420  0.351E-04  0.175E-04  0.175E-04
   3.445  0.679E-03  0.339E-03  0.339E-03
   3.470  0.921E-02  0.460E-02  0.460E-02
   3.495  0.204E-01  0.102E-01  0.102E-01
   3.520  0.219E-01  0.110E-01  0.110E-01
   3.545  0.246E-01  0.123E-01  0.123E-01
   3.570  0.131E-01  0.653E-02  0.653E-02
   3.595  0.147E-01  0.737E-02  0.737E-02
   3.620  0.865E-02  0.432E-02  0.432E-02
   3.645  0.216E-02  0.108E-02  0.108E-02
   3.670  0.230E-02  0.115E-02  0.115E-02
   3.695  0.144E-01  0.719E-02  0.719E-02
   3.720  0.203E-01  0.101E-01  0.101E-01
   3.745  0.156E-01  0.780E-02  0.780E-02
   3.770  0.146E-01  0.732E-02  0.732E-02
   3.795  0.983E-02  0.492E-02  0.492E-02
   3.820  0.495E-02  0.247E-02  0.247E-02
   3.845  0.527E-02  0.264E-02  0.264E-02
   3.870  0.125E-02  0.626E-03  0.626E-03
   3.895  0.668E-03  0.334E-03  0.334E-03
   3.920  0.113E-02  0.565E-03  0.565E-03
   3.945  0.248E-02  0.124E-02  0.124E-02
   3.970  0.283E-02  0.142E-02  0.142E-02
   3.995  0.367E-02  0.183E-02  0.183E-02
   4.020  0.291E-02  0.146E-02  0.146E-02
   4.045  0.416E-02  0.208E-02  0.208E-02
   4.070  0.132E-02  0.661E-03  0.661E-03
   4.095  0.576E-04  0.288E-04  0.288E-04
   4.120  0.931E-05  0.465E-05  0.465E-05
   4.145  0.289E-03  0.144E-03  0.144E-03
   4.170  0.158E-02  0.790E-03  0.790E-03
   4.195  0.400E-02  0.200E-02  0.200E-02
   4.220  0.511E-02  0.255E-02  0.255E-02
   4.245  0.613E-02  0.307E-02  0.307E-02
   4.270  0.503E-02  0.251E-02  0.251E-02
   4.295  0.779E-03  0.390E-03  0.390E-03
   4.320  0.134E-02  0.669E-03  0.669E-03
   4.345  0.348E-02  0.174E-02  0.174E-02
   4.370  0.139E-02  0.694E-03  0.694E-03
   4.395  0.884E-04  0.442E-04  0.442E-04
   4.420  0.562E-03  0.281E-03  0.281E-03
   4.445  0.429E-02  0.214E-02  0.214E-02
   4.470  0.589E-02  0.294E-02  0.294E-02
   4.495  0.170E-02  0.852E-03  0.852E-03
   4.520  0.856E-03  0.428E-03  0.428E-03
   4.545  0.453E-03  0.226E-03  0.226E-03
   4.570  0.356E-04  0.178E-04  0.178E-04
   4.595  0.380E-06  0.190E-06  0.190E-06
   4.620  0.232E-06  0.116E-06  0.116E-06
   4.645  0.219E-04  0.109E-04  0.109E-04
   4.670  0.280E-03  0.140E-03  0.140E-03
   4.695  0.486E-03  0.243E-03  0.243E-03
   4.720  0.114E-03  0.571E-04  0.571E-04
   4.745  0.596E-05  0.298E-05  0.298E-05
   4.770  0.301E-05  0.151E-05  0.151E-05
   4.795  0.521E-06  0.261E-06  0.261E-06
   4.820  0.147E-07  0.733E-08  0.733E-08
   4.845  0.289E-08  0.144E-08  0.144E-08
   4.870  0.504E-08  0.252E-08  0.252E-08
   4.895  0.148E-08  0.740E-09  0.740E-09
   4.920  0.591E-10  0.295E-10  0.295E-10
   4.945  0.319E-12  0.159E-12  0.159E-12
   4.970  0.233E-15  0.116E-15  0.116E-15
   4.995  0.230E-19  0.115E-19  0.115E-19
   5.020  0.308E-24  0.154E-24  0.154E-24
   5.045  0.000E+00  0.000E+00  0.000E+00
   5.070  0.000E+00  0.000E+00  0.000E+00
   5.095  0.000E+00  0.000E+00  0.000E+00
   5.120  0.000E+00  0.000E+00  0.000E+00
   5.145  0.000E+00  0.000E+00  0.000E+00
   5.170  0.000E+00  0.000E+00  0.000E+00
   5.195  0.000E+00  0.000E+00  0.000E+00
   5.220  0.000E+00  0.000E+00  0.000E+00
   5.245  0.000E+00  0.000E+00  0.000E+00
   5.270  0.000E+00  0.000E+00  0.000E+00
   5.295  0.000E+00  0.000E+00  0.000E+00
   5.320  0.000E+00  0.000E+00  0.000E+00
   5.345  0.000E+00  0.000E+00  0.000E+00
   5.370  0.000E+00  0.000E+00  0.000E+00
   5.395  0.000E+00  0.000E+00  0.000E+00
   5.420  0.000E+00  0.000E+00  0.000E+00
   5.445  0.000E+00  0.000E+00  0.000E+00
   5.470  0.000E+00  0.000E+00  0.000E+00
   5.495  0.000E+00  0.000E+00  0.000E+00
   5.520  0.000E+00  0.000E+00  0.000E+00
   5.545  0.000E+00  0.000E+00  0.000E+00
   5.570  0.000E+00  0.000E+00  0.000E+00
   5.595  0.000E+00  0.000E+00  0.000E+00
   5.620  0.000E+00  0.000E+00  0.000E+00
   5.645  0.000E+00  0.000E+00  0.000E+00
   5.670  0.294E-19  0.147E-19  0.147E-19
   5.695  0.416E-14  0.208E-14  0.208E-14
   5.720  0.798E-10  0.399E-10  0.399E-10
   5.745  0.207E-06  0.103E-06  0.103E-06
   5.770  0.726E-04  0.363E-04  0.363E-04
   5.795  0.347E-02  0.173E-02  0.173E-02
   5.820  0.232E-01  0.116E-01  0.116E-01
   5.845  0.289E-01  0.145E-01  0.145E-01
   5.870  0.252E-01  0.126E-01  0.126E-01
   5.895  0.377E-01  0.188E-01  0.188E-01
   5.920  0.304E-01  0.152E-01  0.152E-01
   5.945  0.272E-01  0.136E-01  0.136E-01
   5.970  0.897E-02  0.448E-02  0.448E-02
   5.995  0.430E-03  0.215E-03  0.215E-03
   6.020  0.280E-05  0.140E-05  0.140E-05
   6.045  0.247E-08  0.123E-08  0.123E-08
   6.070  0.135E-07  0.676E-08  0.676E-08
   6.095  0.111E-04  0.553E-05  0.553E-05
   6.120  0.122E-02  0.611E-03  0.611E-03
   6.145  0.183E-01  0.916E-02  0.916E-02
   6.170  0.372E-01  0.186E-01  0.186E-01
   6.195  0.133E-01  0.666E-02  0.666E-02
   6.220  0.289E-01  0.144E-01  0.144E-01
   6.245  0.698E-01  0.349E-01  0.349E-01
   6.270  0.950E-01  0.475E-01  0.475E-01
   6.295  0.929E-01  0.464E-01  0.464E-01
   6.320  0.137E+00  0.686E-01  0.686E-01
   6.345  0.790E-01  0.395E-01  0.395E-01
   6.370  0.584E-01  0.292E-01  0.292E-01
   6.395  0.110E+00  0.548E-01  0.548E-01
   6.420  0.110E+00  0.551E-01  0.551E-01
   6.445  0.434E-01  0.217E-01  0.217E-01
   6.470  0.351E-02  0.175E-02  0.175E-02
   6.495  0.204E-01  0.102E-01  0.102E-01
   6.520  0.128E+00  0.639E-01  0.639E-01
   6.545  0.228E+00  0.114E+00  0.114E+00
   6.570  0.104E+00  0.521E-01  0.521E-01
   6.595  0.519E-01  0.260E-01  0.260E-01
   6.620  0.194E-01  0.972E-02  0.972E-02
   6.645  0.183E-01  0.917E-02  0.917E-02
   6.670  0.948E-01  0.474E-01  0.474E-01
   6.695  0.126E+00  0.629E-01  0.629E-01
   6.720  0.463E-01  0.231E-01  0.231E-01
   6.745  0.923E-01  0.462E-01  0.462E-01
   6.770  0.128E+00  0.639E-01  0.639E-01
   6.795  0.104E+00  0.519E-01  0.519E-01
   6.820  0.690E-01  0.345E-01  0.345E-01
   6.845  0.176E-01  0.878E-02  0.878E-02
   6.870  0.324E-01  0.162E-01  0.162E-01
   6.895  0.962E-01  0.481E-01  0.481E-01
   6.920  0.143E+00  0.716E-01  0.716E-01
   6.945  0.127E+00  0.636E-01  0.636E-01
   6.970  0.447E-01  0.224E-01  0.224E-01
   6.995  0.359E-01  0.180E-01  0.180E-01
   7.020  0.393E-01  0.196E-01  0.196E-01
   7.045  0.185E-01  0.923E-02  0.923E-02
   7.070  0.452E-01  0.226E-01  0.226E-01
   7.095  0.170E+00  0.850E-01  0.850E-01
   7.120  0.169E+00  0.843E-01  0.843E-01
   7.145  0.718E-01  0.359E-01  0.359E-01
   7.170  0.116E+00  0.578E-01  0.578E-01
   7.195  0.982E-01  0.491E-01  0.491E-01
   7.220  0.123E+00  0.614E-01  0.614E-01
   7.245  0.188E+00  0.940E-01  0.940E-01
   7.270  0.301E+00  0.150E+00  0.150E+00
   7.295  0.326E+00  0.163E+00  0.163E+00
   7.320  0.121E+00  0.606E-01  0.606E-01
   7.345  0.231E-01  0.115E-01  0.115E-01
   7.370  0.653E-01  0.327E-01  0.327E-01
   7.395  0.207E+00  0.104E+00  0.104E+00
   7.420  0.420E+00  0.210E+00  0.210E+00
   7.445  0.289E+00  0.144E+00  0.144E+00
   7.470  0.115E+00  0.574E-01  0.574E-01
   7.495  0.156E-01  0.778E-02  0.778E-02
   7.520  0.350E-01  0.175E-01  0.175E-01
   7.545  0.598E-01  0.299E-01  0.299E-01
   7.570  0.109E+00  0.545E-01  0.545E-01
   7.595  0.175E+00  0.873E-01  0.873E-01
   7.620  0.165E+00  0.826E-01  0.826E-01
   7.645  0.922E-01  0.461E-01  0.461E-01
   7.670  0.568E-01  0.284E-01  0.284E-01
   7.695  0.101E+00  0.505E-01  0.505E-01
   7.720  0.148E+00  0.740E-01  0.740E-01
   7.745  0.754E-01  0.377E-01  0.377E-01
   7.770  0.876E-01  0.438E-01  0.438E-01
   7.795  0.646E-01  0.323E-01  0.323E-01
   7.820  0.107E+00  0.536E-01  0.536E-01
   7.845  0.118E+00  0.592E-01  0.592E-01
   7.870  0.347E-01  0.173E-01  0.173E-01
   7.895  0.143E-01  0.716E-02  0.716E-02
   7.920  0.113E+00  0.565E-01  0.565E-01
   7.945  0.189E+00  0.947E-01  0.947E-01
   7.970  0.589E-01  0.295E-01  0.295E-01
   7.995  0.181E-01  0.906E-02  0.906E-02
   8.020  0.740E-02  0.370E-02  0.370E-02
   8.045  0.201E-01  0.101E-01  0.101E-01
   8.070  0.265E-01  0.132E-01  0.132E-01
   8.095  0.447E-01  0.223E-01  0.223E-01
   8.120  0.173E-01  0.866E-02  0.866E-02
   8.145  0.928E-03  0.464E-03  0.464E-03
   8.170  0.673E-05  0.336E-05  0.336E-05
   8.195  0.660E-08  0.330E-08  0.330E-08
