# E(eV)   ldos(E)   pdos(E)_1   pdos(E)_2   
  -7.905  0.962E-05  0.481E-05  0.481E-05
  -7.880  0.168E-02  0.840E-03  0.840E-03
  -7.855  0.521E-01  0.260E-01  0.260E-01
  -7.830  0.385E+00  0.193E+00  0.193E+00
  -7.805  0.877E+00  0.438E+00  0.438E+00
  -7.780  0.616E+00  0.308E+00  0.308E+00
  -7.755  0.311E+00  0.156E+00  0.156E+00
  -7.730  0.460E+00  0.230E+00  0.230E+00
  -7.705  0.445E+00  0.222E+00  0.222E+00
  -7.680  0.213E+00  0.106E+00  0.106E+00
  -7.655  0.142E+00  0.711E-01  0.711E-01
  -7.630  0.256E+00  0.128E+00  0.128E+00
  -7.605  0.260E+00  0.130E+00  0.130E+00
  -7.580  0.272E+00  0.136E+00  0.136E+00
  -7.555  0.128E+00  0.639E-01  0.639E-01
  -7.530  0.159E+00  0.793E-01  0.793E-01
  -7.505  0.254E+00  0.127E+00  0.127E+00
  -7.480  0.257E+00  0.128E+00  0.128E+00
  -7.455  0.315E+00  0.157E+00  0.157E+00
  -7.430  0.263E+00  0.132E+00  0.132E+00
  -7.405  0.207E+00  0.103E+00  0.103E+00
  -7.380  0.798E-01  0.399E-01  0.399E-01
  -7.355  0.112E+00  0.561E-01  0.561E-01
  -7.330  0.187E+00  0.936E-01  0.936E-01
  -7.305  0.125E+00  0.623E-01  0.623E-01
  -7.280  0.144E+00  0.720E-01  0.720E-01
  -7.255  0.236E+00  0.118E+00  0.118E+00
  -7.230  0.134E+00  0.670E-01  0.670E-01
  -7.205  0.367E-01  0.183E-01  0.183E-01
  -7.180  0.123E-01  0.613E-02  0.613E-02
  -7.155  0.108E+00  0.538E-01  0.538E-01
  -7.130  0.303E+00  0.151E+00  0.151E+00
  -7.105  0.186E+00  0.930E-01  0.930E-01
  -7.080  0.192E-01  0.959E-02  0.959E-02
  -7.055  0.160E-02  0.798E-03  0.798E-03
  -7.030  0.432E-01  0.216E-01  0.216E-01
  -7.005  0.235E+00  0.118E+00  0.118E+00
  -6.980  0.250E+00  0.125E+00  0.125E+00
  -6.955  0.104E+00  0.518E-01  0.518E-01
  -6.930  0.186E+00  0.929E-01  0.929E-01
  -6.905  0.236E+00  0.118E+00  0.118E+00
  -6.880  0.181E+00  0.907E-01  0.907E-01
  -6.855  0.699E-01  0.349E-01  0.349E-01
  -6.830  0.115E+00  0.577E-01  0.577E-01
  -6.805  0.150E+00  0.751E-01  0.751E-01
  -6.780  0.773E-01  0.386E-01  0.386E-01
  -6.755  0.719E-01  0.360E-01  0.360E-01
  -6.730  0.836E-01  0.418E-01  0.418E-01
  -6.705  0.106E+00  0.528E-01  0.528E-01
  -6.680  0.229E+00  0.114E+00  0.114E+00
  -6.655  0.958E-01  0.479E-01  0.479E-01
  -6.630  0.857E-01  0.428E-01  0.428E-01
  -6.605  0.181E+00  0.906E-01  0.906E-01
  -6.580  0.122E+00  0.612E-01  0.612E-01
  -6.555  0.515E-01  0.257E-01  0.257E-01
  -6.530  0.630E-01  0.315E-01  0.315E-01
  -6.505  0.106E+00  0.531E-01  0.531E-01
  -6.480  0.735E-01  0.368E-01  0.368E-01
  -6.455  0.980E-01  0.490E-01  0.490E-01
  -6.430  0.203E+00  0.101E+00  0.101E+00
  -6.405  0.227E+00  0.113E+00  0.113E+00
  -6.380  0.653E-01  0.327E-01  0.327E-01
  -6.355  0.782E-02  0.391E-02  0.391E-02
  -6.330  0.374E-02  0.187E-02  0.187E-02
  -6.305  0.509E-01  0.254E-01  0.254E-01
  -6.280  0.135E+00  0.673E-01  0.673E-01
  -6.255  0.697E-01  0.349E-01  0.349E-01
  -6.230  0.187E-01  0.937E-02  0.937E-02
  -6.205  0.536E-01  0.268E-01  0.268E-01
  -6.180  0.672E-01  0.336E-01  0.336E-01
  -6.155  0.166E+00  0.832E-01  0.832E-01
  -6.130  0.183E+00  0.913E-01  0.913E-01
  -6.105  0.134E+00  0.668E-01  0.668E-01
  -6.080  0.690E-01  0.345E-01  0.345E-01
  -6.055  0.104E+00  0.520E-01  0.520E-01
  -6.030  0.576E-01  0.288E-01  0.288E-01
  -6.005  0.773E-01  0.387E-01  0.387E-01
  -5.980  0.121E+00  0.603E-01  0.603E-01
  -5.955  0.716E-01  0.358E-01  0.358E-01
  -5.930  0.232E-01  0.116E-01  0.116E-01
  -5.905  0.211E-01  0.106E-01  0.106E-01
  -5.880  0.829E-01  0.415E-01  0.415E-01
  -5.855  0.180E+00  0.901E-01  0.901E-01
  -5.830  0.109E+00  0.543E-01  0.543E-01
  -5.805  0.138E+00  0.691E-01  0.691E-01
  -5.780  0.203E+00  0.101E+00  0.101E+00
  -5.755  0.813E-01  0.407E-01  0.407E-01
  -5.730  0.299E-01  0.149E-01  0.149E-01
  -5.705  0.126E+00  0.632E-01  0.632E-01
  -5.680  0.116E+00  0.581E-01  0.581E-01
  -5.655  0.186E-01  0.928E-02  0.928E-02
  -5.630  0.285E-02  0.143E-02  0.143E-02
  -5.605  0.435E-01  0.217E-01  0.217E-01
  -5.580  0.130E+00  0.651E-01  0.651E-01
  -5.555  0.133E+00  0.663E-01  0.663E-01
  -5.530  0.531E-01  0.265E-01  0.265E-01
  -5.505  0.423E-01  0.211E-01  0.211E-01
  -5.480  0.143E+00  0.714E-01  0.714E-01
  -5.455  0.884E-01  0.442E-01  0.442E-01
  -5.430  0.103E-01  0.516E-02  0.516E-02
  -5.405  0.693E-02  0.347E-02  0.347E-02
  -5.380  0.864E-01  0.432E-01  0.432E-01
  -5.355  0.162E+00  0.811E-01  0.811E-01
  -5.330  0.456E-01  0.228E-01  0.228E-01
  -5.305  0.120E-01  0.598E-02  0.598E-02
  -5.280  0.504E-01  0.252E-01  0.252E-01
  -5.255  0.416E-01  0.208E-01  0.208E-01
  -5.230  0.320E-01  0.160E-01  0.160E-01
  -5.205  0.215E-01  0.108E-01  0.108E-01
  -5.180  0.723E-01  0.362E-01  0.362E-01
  -5.155  0.985E-01  0.492E-01  0.492E-01
  -5.130  0.375E-01  0.188E-01  0.188E-01
  -5.105  0.653E-01  0.326E-01  0.326E-01
  -5.080  0.783E-01  0.391E-01  0.391E-01
  -5.055  0.224E+00  0.112E+00  0.112E+00
  -5.030  0.184E+00  0.922E-01  0.922E-01
  -5.005  0.328E-01  0.164E-01  0.164E-01
  -4.980  0.299E-01  0.149E-01  0.149E-01
  -4.955  0.121E+00  0.604E-01  0.604E-01
  -4.930  0.131E+00  0.654E-01  0.654E-01
  -4.905  0.727E-01  0.364E-01  0.364E-01
  -4.880  0.970E-01  0.485E-01  0.485E-01
  -4.855  0.285E+00  0.143E+00  0.143E+00
  -4.830  0.223E+00  0.111E+00  0.111E+00
  -4.805  0.562E-01  0.281E-01  0.281E-01
  -4.780  0.115E+00  0.577E-01  0.577E-01
  -4.755  0.873E-01  0.437E-01  0.437E-01
  -4.730  0.681E-01  0.340E-01  0.340E-01
  -4.705  0.305E-01  0.152E-01  0.152E-01
  -4.680  0.705E-02  0.352E-02  0.352E-02
  -4.655  0.687E-01  0.343E-01  0.343E-01
  -4.630  0.206E+00  0.103E+00  0.103E+00
  -4.605  0.141E+00  0.706E-01  0.706E-01
  -4.580  0.600E-01  0.300E-01  0.300E-01
  -4.555  0.206E+00  0.103E+00  0.103E+00
  -4.530  0.187E+00  0.935E-01  0.935E-01
  -4.505  0.179E+00  0.894E-01  0.894E-01
  -4.480  0.114E+00  0.568E-01  0.568E-01
  -4.455  0.168E-01  0.839E-02  0.839E-02
  -4.430  0.142E-01  0.712E-02  0.712E-02
  -4.405  0.108E+00  0.542E-01  0.542E-01
  -4.380  0.164E+00  0.819E-01  0.819E-01
  -4.355  0.172E+00  0.861E-01  0.861E-01
  -4.330  0.213E+00  0.106E+00  0.106E+00
  -4.305  0.202E+00  0.101E+00  0.101E+00
  -4.280  0.587E-01  0.294E-01  0.294E-01
  -4.255  0.149E+00  0.745E-01  0.745E-01
  -4.230  0.405E+00  0.202E+00  0.202E+00
  -4.205  0.245E+00  0.122E+00  0.122E+00
  -4.180  0.237E-01  0.118E-01  0.118E-01
  -4.155  0.334E-03  0.167E-03  0.167E-03
  -4.130  0.154E-05  0.771E-06  0.771E-06
  -4.105  0.233E-03  0.116E-03  0.116E-03
  -4.080  0.876E-02  0.438E-02  0.438E-02
  -4.055  0.679E-01  0.339E-01  0.339E-01
  -4.030  0.230E+00  0.115E+00  0.115E+00
  -4.005  0.230E+00  0.115E+00  0.115E+00
  -3.980  0.253E+00  0.127E+00  0.127E+00
  -3.955  0.364E+00  0.182E+00  0.182E+00
  -3.930  0.156E+00  0.778E-01  0.778E-01
  -3.905  0.727E-01  0.363E-01  0.363E-01
  -3.880  0.109E+00  0.544E-01  0.544E-01
  -3.855  0.148E+00  0.740E-01  0.740E-01
  -3.830  0.154E+00  0.772E-01  0.772E-01
  -3.805  0.140E+00  0.700E-01  0.700E-01
  -3.780  0.151E+00  0.755E-01  0.755E-01
  -3.755  0.124E+00  0.621E-01  0.621E-01
  -3.730  0.163E+00  0.813E-01  0.813E-01
  -3.705  0.252E+00  0.126E+00  0.126E+00
  -3.680  0.182E+00  0.910E-01  0.910E-01
  -3.655  0.159E+00  0.796E-01  0.796E-01
  -3.630  0.110E+00  0.551E-01  0.551E-01
  -3.605  0.173E+00  0.866E-01  0.866E-01
  -3.580  0.942E-01  0.471E-01  0.471E-01
  -3.555  0.424E-01  0.212E-01  0.212E-01
  -3.530  0.648E-01  0.324E-01  0.324E-01
  -3.505  0.107E+00  0.534E-01  0.534E-01
  -3.480  0.101E+00  0.505E-01  0.505E-01
  -3.455  0.397E-01  0.199E-01  0.199E-01
  -3.430  0.970E-01  0.485E-01  0.485E-01
  -3.405  0.239E+00  0.120E+00  0.120E+00
  -3.380  0.312E+00  0.156E+00  0.156E+00
  -3.355  0.254E+00  0.127E+00  0.127E+00
  -3.330  0.138E+00  0.689E-01  0.689E-01
  -3.305  0.122E+00  0.609E-01  0.609E-01
  -3.280  0.124E+00  0.619E-01  0.619E-01
  -3.255  0.232E+00  0.116E+00  0.116E+00
  -3.230  0.223E+00  0.111E+00  0.111E+00
  -3.205  0.877E-01  0.438E-01  0.438E-01
  -3.180  0.960E-02  0.480E-02  0.480E-02
  -3.155  0.320E-01  0.160E-01  0.160E-01
  -3.130  0.133E+00  0.664E-01  0.664E-01
  -3.105  0.120E+00  0.601E-01  0.601E-01
  -3.080  0.551E-01  0.275E-01  0.275E-01
  -3.055  0.769E-01  0.385E-01  0.385E-01
  -3.030  0.123E+00  0.613E-01  0.613E-01
  -3.005  0.842E-01  0.421E-01  0.421E-01
  -2.980  0.405E-01  0.202E-01  0.202E-01
  -2.955  0.941E-01  0.470E-01  0.470E-01
  -2.930  0.687E-01  0.344E-01  0.344E-01
  -2.905  0.532E-01  0.266E-01  0.266E-01
  -2.880  0.476E-01  0.238E-01  0.238E-01
  -2.855  0.222E+00  0.111E+00  0.111E+00
  -2.830  0.263E+00  0.132E+00  0.132E+00
  -2.805  0.237E+00  0.119E+00  0.119E+00
  -2.780  0.144E+00  0.722E-01  0.722E-01
  -2.755  0.195E-01  0.976E-02  0.976E-02
  -2.730  0.664E-01  0.332E-01  0.332E-01
  -2.705  0.112E+00  0.559E-01  0.559E-01
  -2.680  0.648E-01  0.324E-01  0.324E-01
  -2.655  0.496E-01  0.248E-01  0.248E-01
  -2.630  0.558E-01  0.279E-01  0.279E-01
  -2.605  0.809E-01  0.404E-01  0.404E-01
  -2.580  0.988E-01  0.494E-01  0.494E-01
  -2.555  0.226E+00  0.113E+00  0.113E+00
  -2.530  0.209E+00  0.104E+00  0.104E+00
  -2.505  0.124E+00  0.620E-01  0.620E-01
  -2.480  0.114E+00  0.568E-01  0.568E-01
  -2.455  0.962E-01  0.481E-01  0.481E-01
  -2.430  0.175E+00  0.874E-01  0.874E-01
  -2.405  0.185E+00  0.927E-01  0.927E-01
  -2.380  0.169E+00  0.846E-01  0.846E-01
  -2.355  0.840E-01  0.420E-01  0.420E-01
  -2.330  0.192E+00  0.962E-01  0.962E-01
  -2.305  0.159E+00  0.794E-01  0.794E-01
  -2.280  0.763E-01  0.382E-01  0.382E-01
  -2.255  0.960E-01  0.480E-01  0.480E-01
  -2.230  0.127E+00  0.634E-01  0.634E-01
  -2.205  0.348E-01  0.174E-01  0.174E-01
  -2.180  0.202E-01  0.101E-01  0.101E-01
  -2.155  0.169E+00  0.844E-01  0.844E-01
  -2.130  0.385E+00  0.193E+00  0.193E+00
  -2.105  0.234E+00  0.117E+00  0.117E+00
  -2.080  0.330E-01  0.165E-01  0.165E-01
  -2.055  0.426E-01  0.213E-01  0.213E-01
  -2.030  0.302E-01  0.151E-01  0.151E-01
  -2.005  0.292E-02  0.146E-02  0.146E-02
  -1.980  0.258E-03  0.129E-03  0.129E-03
  -1.955  0.303E-02  0.152E-02  0.152E-02
  -1.930  0.570E-02  0.285E-02  0.285E-02
  -1.905  0.649E-02  0.325E-02  0.325E-02
  -1.880  0.711E-01  0.356E-01  0.356E-01
  -1.855  0.149E+00  0.745E-01  0.745E-01
  -1.830  0.459E-01  0.229E-01  0.229E-01
  -1.805  0.248E-02  0.124E-02  0.124E-02
  -1.780  0.155E-01  0.773E-02  0.773E-02
  -1.755  0.835E-01  0.417E-01  0.417E-01
  -1.730  0.107E+00  0.536E-01  0.536E-01
  -1.705  0.166E+00  0.830E-01  0.830E-01
  -1.680  0.739E-01  0.369E-01  0.369E-01
  -1.655  0.468E-02  0.234E-02  0.234E-02
  -1.630  0.433E-04  0.217E-04  0.217E-04
  -1.605  0.315E-03  0.157E-03  0.157E-03
  -1.580  0.500E-02  0.250E-02  0.250E-02
  -1.555  0.158E-01  0.790E-02  0.790E-02
  -1.530  0.878E-01  0.439E-01  0.439E-01
  -1.505  0.196E+00  0.979E-01  0.979E-01
  -1.480  0.111E+00  0.554E-01  0.554E-01
  -1.455  0.121E+00  0.605E-01  0.605E-01
  -1.430  0.134E+00  0.669E-01  0.669E-01
  -1.405  0.119E+00  0.597E-01  0.597E-01
  -1.380  0.438E-01  0.219E-01  0.219E-01
  -1.355  0.700E-01  0.350E-01  0.350E-01
  -1.330  0.140E+00  0.700E-01  0.700E-01
  -1.305  0.104E+00  0.518E-01  0.518E-01
  -1.280  0.120E+00  0.601E-01  0.601E-01
  -1.255  0.137E+00  0.683E-01  0.683E-01
  -1.230  0.116E+00  0.579E-01  0.579E-01
  -1.205  0.103E+00  0.517E-01  0.517E-01
  -1.180  0.194E-01  0.970E-02  0.970E-02
  -1.155  0.101E-02  0.503E-03  0.503E-03
  -1.130  0.810E-02  0.405E-02  0.405E-02
  -1.105  0.233E-01  0.117E-01  0.117E-01
  -1.080  0.142E-01  0.712E-02  0.712E-02
  -1.055  0.545E-01  0.272E-01  0.272E-01
  -1.030  0.797E-01  0.398E-01  0.398E-01
  -1.005  0.551E-01  0.276E-01  0.276E-01
  -0.980  0.106E+00  0.532E-01  0.532E-01
  -0.955  0.130E+00  0.648E-01  0.648E-01
  -0.930  0.857E-01  0.428E-01  0.428E-01
  -0.905  0.411E-01  0.206E-01  0.206E-01
  -0.880  0.721E-01  0.360E-01  0.360E-01
  -0.855  0.937E-01  0.469E-01  0.469E-01
  -0.830  0.408E-01  0.204E-01  0.204E-01
  -0.805  0.775E-01  0.388E-01  0.388E-01
  -0.780  0.115E+00  0.576E-01  0.576E-01
  -0.755  0.813E-01  0.407E-01  0.407E-01
  -0.730  0.665E-01  0.332E-01  0.332E-01
  -0.705  0.196E-01  0.979E-02  0.979E-02
  -0.680  0.661E-01  0.331E-01  0.331E-01
  -0.655  0.145E+00  0.726E-01  0.726E-01
  -0.630  0.945E-01  0.472E-01  0.472E-01
  -0.605  0.645E-01  0.322E-01  0.322E-01
  -0.580  0.725E-01  0.363E-01  0.363E-01
  -0.555  0.274E-01  0.137E-01  0.137E-01
  -0.530  0.223E-01  0.112E-01  0.112E-01
  -0.505  0.107E+00  0.535E-01  0.535E-01
  -0.480  0.163E+00  0.814E-01  0.814E-01
  -0.455  0.130E+00  0.652E-01  0.652E-01
  -0.430  0.120E+00  0.599E-01  0.599E-01
  -0.405  0.757E-01  0.378E-01  0.378E-01
  -0.380  0.177E-01  0.883E-02  0.883E-02
  -0.355  0.179E-01  0.897E-02  0.897E-02
  -0.330  0.883E-01  0.441E-01  0.441E-01
  -0.305  0.111E+00  0.554E-01  0.554E-01
  -0.280  0.342E-01  0.171E-01  0.171E-01
  -0.255  0.618E-01  0.309E-01  0.309E-01
  -0.230  0.135E+00  0.677E-01  0.677E-01
  -0.205  0.921E-01  0.460E-01  0.460E-01
  -0.180  0.344E-01  0.172E-01  0.172E-01
  -0.155  0.748E-01  0.374E-01  0.374E-01
  -0.130  0.946E-01  0.473E-01  0.473E-01
  -0.105  0.919E-01  0.460E-01  0.460E-01
  -0.080  0.446E-01  0.223E-01  0.223E-01
  -0.055  0.136E-01  0.681E-02  0.681E-02
  -0.030  0.372E-01  0.186E-01  0.186E-01
  -0.005  0.602E-01  0.301E-01  0.301E-01
   0.020  0.774E-01  0.387E-01  0.387E-01
   0.045  0.128E+00  0.638E-01  0.638E-01
   0.070  0.994E-01  0.497E-01  0.497E-01
   0.095  0.107E+00  0.533E-01  0.533E-01
   0.120  0.682E-01  0.341E-01  0.341E-01
   0.145  0.836E-01  0.418E-01  0.418E-01
   0.170  0.726E-01  0.363E-01  0.363E-01
   0.195  0.506E-01  0.253E-01  0.253E-01
   0.220  0.221E-01  0.110E-01  0.110E-01
   0.245  0.656E-01  0.328E-01  0.328E-01
   0.270  0.950E-01  0.475E-01  0.475E-01
   0.295  0.308E-01  0.154E-01  0.154E-01
   0.320  0.370E-02  0.185E-02  0.185E-02
   0.345  0.217E-01  0.108E-01  0.108E-01
   0.370  0.912E-01  0.456E-01  0.456E-01
   0.395  0.669E-01  0.334E-01  0.334E-01
   0.420  0.603E-01  0.302E-01  0.302E-01
   0.445  0.130E+00  0.652E-01  0.652E-01
   0.470  0.868E-01  0.434E-01  0.434E-01
   0.495  0.199E-01  0.993E-02  0.993E-02
   0.520  0.431E-01  0.215E-01  0.215E-01
   0.545  0.611E-01  0.306E-01  0.306E-01
   0.570  0.358E-01  0.179E-01  0.179E-01
   0.595  0.117E-01  0.585E-02  0.585E-02
   0.620  0.441E-01  0.220E-01  0.220E-01
   0.645  0.472E-01  0.236E-01  0.236E-01
   0.670  0.671E-01  0.335E-01  0.335E-01
   0.695  0.931E-01  0.466E-01  0.466E-01
   0.720  0.102E+00  0.508E-01  0.508E-01
   0.745  0.901E-01  0.451E-01  0.451E-01
   0.770  0.438E-01  0.219E-01  0.219E-01
   0.795  0.750E-01  0.375E-01  0.375E-01
   0.820  0.701E-01  0.350E-01  0.350E-01
   0.845  0.233E-01  0.116E-01  0.116E-01
   0.870  0.203E-02  0.101E-02  0.101E-02
   0.895  0.220E-02  0.110E-02  0.110E-02
   0.920  0.310E-01  0.155E-01  0.155E-01
   0.945  0.121E+00  0.604E-01  0.604E-01
   0.970  0.132E+00  0.660E-01  0.660E-01
   0.995  0.829E-01  0.415E-01  0.415E-01
   1.020  0.105E+00  0.527E-01  0.527E-01
   1.045  0.829E-01  0.414E-01  0.414E-01
   1.070  0.203E-01  0.101E-01  0.101E-01
   1.095  0.362E-01  0.181E-01  0.181E-01
   1.120  0.664E-01  0.332E-01  0.332E-01
   1.145  0.202E-01  0.101E-01  0.101E-01
   1.170  0.247E-01  0.124E-01  0.124E-01
   1.195  0.630E-01  0.315E-01  0.315E-01
   1.220  0.421E-01  0.211E-01  0.211E-01
   1.245  0.556E-01  0.278E-01  0.278E-01
   1.270  0.989E-01  0.495E-01  0.495E-01
   1.295  0.133E+00  0.664E-01  0.664E-01
   1.320  0.690E-01  0.345E-01  0.345E-01
   1.345  0.656E-01  0.328E-01  0.328E-01
   1.370  0.347E-01  0.174E-01  0.174E-01
   1.395  0.270E-01  0.135E-01  0.135E-01
   1.420  0.277E-01  0.138E-01  0.138E-01
   1.445  0.194E-01  0.972E-02  0.972E-02
   1.470  0.377E-01  0.189E-01  0.189E-01
   1.495  0.447E-01  0.223E-01  0.223E-01
   1.520  0.344E-01  0.172E-01  0.172E-01
   1.545  0.198E-01  0.992E-02  0.992E-02
   1.570  0.487E-01  0.244E-01  0.244E-01
   1.595  0.422E-01  0.211E-01  0.211E-01
   1.620  0.390E-01  0.195E-01  0.195E-01
   1.645  0.545E-01  0.272E-01  0.272E-01
   1.670  0.572E-01  0.286E-01  0.286E-01
   1.695  0.386E-01  0.193E-01  0.193E-01
   1.720  0.209E-01  0.105E-01  0.105E-01
   1.745  0.439E-02  0.220E-02  0.220E-02
   1.770  0.227E-02  0.114E-02  0.114E-02
   1.795  0.591E-02  0.296E-02  0.296E-02
   1.820  0.363E-01  0.182E-01  0.182E-01
   1.845  0.409E-01  0.204E-01  0.204E-01
   1.870  0.113E-01  0.565E-02  0.565E-02
   1.895  0.398E-01  0.199E-01  0.199E-01
   1.920  0.918E-01  0.459E-01  0.459E-01
   1.945  0.123E+00  0.613E-01  0.613E-01
   1.970  0.942E-01  0.471E-01  0.471E-01
   1.995  0.405E-01  0.202E-01  0.202E-01
   2.020  0.277E-01  0.138E-01  0.138E-01
   2.045  0.202E-01  0.101E-01  0.101E-01
   2.070  0.195E-01  0.973E-02  0.973E-02
   2.095  0.533E-02  0.267E-02  0.267E-02
   2.120  0.486E-03  0.243E-03  0.243E-03
   2.145  0.812E-03  0.406E-03  0.406E-03
   2.170  0.356E-02  0.178E-02  0.178E-02
   2.195  0.200E-01  0.100E-01  0.100E-01
   2.220  0.685E-01  0.343E-01  0.343E-01
   2.245  0.697E-01  0.349E-01  0.349E-01
   2.270  0.654E-01  0.327E-01  0.327E-01
   2.295  0.487E-01  0.244E-01  0.244E-01
   2.320  0.586E-01  0.293E-01  0.293E-01
   2.345  0.423E-01  0.211E-01  0.211E-01
   2.370  0.938E-02  0.469E-02  0.469E-02
   2.395  0.127E-01  0.635E-02  0.635E-02
   2.420  0.196E-01  0.981E-02  0.981E-02
   2.445  0.836E-02  0.418E-02  0.418E-02
   2.470  0.241E-01  0.121E-01  0.121E-01
   2.495  0.382E-01  0.191E-01  0.191E-01
   2.520  0.355E-01  0.178E-01  0.178E-01
   2.545  0.282E-01  0.141E-01  0.141E-01
   2.570  0.176E-01  0.878E-02  0.878E-02
   2.595  0.256E-01  0.128E-01  0.128E-01
   2.620  0.917E-02  0.459E-02  0.459E-02
   2.645  0.858E-02  0.429E-02  0.429E-02
   2.670  0.339E-01  0.169E-01  0.169E-01
   2.695  0.237E-01  0.119E-01  0.119E-01
   2.720  0.402E-02  0.201E-02  0.201E-02
   2.745  0.559E-02  0.280E-02  0.280E-02
   2.770  0.831E-02  0.416E-02  0.416E-02
   2.795  0.126E-01  0.630E-02  0.630E-02
   2.820  0.331E-01  0.165E-01  0.165E-01
   2.845  0.340E-01  0.170E-01  0.170E-01
   2.870  0.310E-01  0.155E-01  0.155E-01
   2.895  0.485E-01  0.243E-01  0.243E-01
   2.920  0.376E-01  0.188E-01  0.188E-01
   2.945  0.327E-01  0.164E-01  0.164E-01
   2.970  0.238E-01  0.119E-01  0.119E-01
   2.995  0.199E-01  0.994E-02  0.994E-02
   3.020  0.998E-02  0.499E-02  0.499E-02
   3.045  0.672E-02  0.336E-02  0.336E-02
   3.070  0.232E-01  0.116E-01  0.116E-01
   3.095  0.218E-01  0.109E-01  0.109E-01
   3.120  0.203E-01  0.102E-01  0.102E-01
   3.145  0.111E-01  0.554E-02  0.554E-02
   3.170  0.488E-02  0.244E-02  0.244E-02
   3.195  0.285E-02  0.142E-02  0.142E-02
   3.220  0.890E-02  0.445E-02  0.445E-02
   3.245  0.104E-01  0.519E-02  0.519E-02
   3.270  0.125E-01  0.623E-02  0.623E-02
   3.295  0.148E-01  0.742E-02  0.742E-02
   3.320  0.455E-02  0.228E-02  0.228E-02
   3.345  0.102E-02  0.512E-03  0.512E-03
   3.370  0.994E-03  0.497E-03  0.497E-03
   3.395  0.180E-03  0.902E-04  0.902E-04
   3.420  0.348E-04  0.174E-04  0.174E-04
   3.445  0.665E-03  0.333E-03  0.333E-03
   3.470  0.910E-02  0.455E-02  0.455E-02
   3.495  0.204E-01  0.102E-01  0.102E-01
   3.520  0.231E-01  0.115E-01  0.115E-01
   3.545  0.246E-01  0.123E-01  0.123E-01
   3.570  0.116E-01  0.581E-02  0.581E-02
   3.595  0.143E-01  0.717E-02  0.717E-02
   3.620  0.838E-02  0.419E-02  0.419E-02
   3.645  0.205E-02  0.102E-02  0.102E-02
   3.670  0.229E-02  0.115E-02  0.115E-02
   3.695  0.144E-01  0.721E-02  0.721E-02
   3.720  0.204E-01  0.102E-01  0.102E-01
   3.745  0.154E-01  0.768E-02  0.768E-02
   3.770  0.147E-01  0.736E-02  0.736E-02
   3.795  0.100E-01  0.500E-02  0.500E-02
   3.820  0.498E-02  0.249E-02  0.249E-02
   3.845  0.524E-02  0.262E-02  0.262E-02
   3.870  0.123E-02  0.614E-03  0.614E-03
   3.895  0.615E-03  0.307E-03  0.307E-03
   3.920  0.103E-02  0.513E-03  0.513E-03
   3.945  0.224E-02  0.112E-02  0.112E-02
   3.970  0.256E-02  0.128E-02  0.128E-02
   3.995  0.360E-02  0.180E-02  0.180E-02
   4.020  0.292E-02  0.146E-02  0.146E-02
   4.045  0.395E-02  0.198E-02  0.198E-02
   4.070  0.125E-02  0.623E-03  0.623E-03
   4.095  0.542E-04  0.271E-04  0.271E-04
   4.120  0.923E-05  0.462E-05  0.462E-05
   4.145  0.284E-03  0.142E-03  0.142E-03
   4.170  0.152E-02  0.759E-03  0.759E-03
   4.195  0.379E-02  0.190E-02  0.190E-02
   4.220  0.522E-02  0.261E-02  0.261E-02
   4.245  0.653E-02  0.327E-02  0.327E-02
   4.270  0.528E-02  0.264E-02  0.264E-02
   4.295  0.793E-03  0.397E-03  0.397E-03
   4.320  0.124E-02  0.620E-03  0.620E-03
   4.345  0.318E-02  0.159E-02  0.159E-02
   4.370  0.127E-02  0.633E-03  0.633E-03
   4.395  0.817E-04  0.409E-04  0.409E-04
   4.420  0.557E-03  0.279E-03  0.279E-03
   4.445  0.423E-02  0.212E-02  0.212E-02
   4.470  0.581E-02  0.290E-02  0.290E-02
   4.495  0.169E-02  0.844E-03  0.844E-03
   4.520  0.840E-03  0.420E-03  0.420E-03
   4.545  0.443E-03  0.221E-03  0.221E-03
   4.570  0.348E-04  0.174E-04  0.174E-04
   4.595  0.371E-06  0.186E-06  0.186E-06
   4.620  0.257E-06  0.129E-06  0.129E-06
   4.645  0.241E-04  0.121E-04  0.121E-04
   4.670  0.307E-03  0.154E-03  0.154E-03
   4.695  0.529E-03  0.265E-03  0.265E-03
   4.720  0.124E-03  0.618E-04  0.618E-04
   4.745  0.626E-05  0.313E-05  0.313E-05
   4.770  0.305E-05  0.153E-05  0.153E-05
   4.795  0.527E-06  0.263E-06  0.263E-06
   4.820  0.124E-07  0.619E-08  0.619E-08
   4.845  0.396E-10  0.198E-10  0.198E-10
   4.870  0.532E-12  0.266E-12  0.266E-12
   4.895  0.152E-12  0.761E-13  0.761E-13
   4.920  0.608E-14  0.304E-14  0.304E-14
   4.945  0.329E-16  0.165E-16  0.165E-16
   4.970  0.241E-19  0.121E-19  0.121E-19
   4.995  0.239E-23  0.120E-23  0.120E-23
   5.020  0.321E-28  0.160E-28  0.160E-28
   5.045  0.000E+00  0.000E+00  0.000E+00
   5.070  0.000E+00  0.000E+00  0.000E+00
   5.095  0.000E+00  0.000E+00  0.000E+00
   5.120  0.000E+00  0.000E+00  0.000E+00
   5.145  0.000E+00  0.000E+00  0.000E+00
   5.170  0.000E+00  0.000E+00  0.000E+00
   5.195  0.000E+00  0.000E+00  0.000E+00
   5.220  0.000E+00  0.000E+00  0.000E+00
   5.245  0.000E+00  0.000E+00  0.000E+00
   5.270  0.000E+00  0.000E+00  0.000E+00
   5.295  0.000E+00  0.000E+00  0.000E+00
   5.320  0.000E+00  0.000E+00  0.000E+00
   5.345  0.000E+00  0.000E+00  0.000E+00
   5.370  0.000E+00  0.000E+00  0.000E+00
   5.395  0.000E+00  0.000E+00  0.000E+00
   5.420  0.000E+00  0.000E+00  0.000E+00
   5.445  0.000E+00  0.000E+00  0.000E+00
   5.470  0.000E+00  0.000E+00  0.000E+00
   5.495  0.000E+00  0.000E+00  0.000E+00
   5.520  0.000E+00  0.000E+00  0.000E+00
   5.545  0.000E+00  0.000E+00  0.000E+00
   5.570  0.000E+00  0.000E+00  0.000E+00
   5.595  0.000E+00  0.000E+00  0.000E+00
   5.620  0.000E+00  0.000E+00  0.000E+00
   5.645  0.000E+00  0.000E+00  0.000E+00
   5.670  0.299E-19  0.150E-19  0.150E-19
   5.695  0.424E-14  0.212E-14  0.212E-14
   5.720  0.813E-10  0.406E-10  0.406E-10
   5.745  0.211E-06  0.105E-06  0.105E-06
   5.770  0.740E-04  0.370E-04  0.370E-04
   5.795  0.354E-02  0.177E-02  0.177E-02
   5.820  0.240E-01  0.120E-01  0.120E-01
   5.845  0.322E-01  0.161E-01  0.161E-01
   5.870  0.266E-01  0.133E-01  0.133E-01
   5.895  0.357E-01  0.178E-01  0.178E-01
   5.920  0.304E-01  0.152E-01  0.152E-01
   5.945  0.277E-01  0.138E-01  0.138E-01
   5.970  0.912E-02  0.456E-02  0.456E-02
   5.995  0.437E-03  0.219E-03  0.219E-03
   6.020  0.285E-05  0.142E-05  0.142E-05
   6.045  0.251E-08  0.126E-08  0.126E-08
   6.070  0.136E-07  0.682E-08  0.682E-08
   6.095  0.111E-04  0.557E-05  0.557E-05
   6.120  0.123E-02  0.615E-03  0.615E-03
   6.145  0.184E-01  0.921E-02  0.921E-02
   6.170  0.373E-01  0.187E-01  0.187E-01
   6.195  0.134E-01  0.670E-02  0.670E-02
   6.220  0.293E-01  0.147E-01  0.147E-01
   6.245  0.737E-01  0.368E-01  0.368E-01
   6.270  0.108E+00  0.539E-01  0.539E-01
   6.295  0.109E+00  0.547E-01  0.547E-01
   6.320  0.137E+00  0.684E-01  0.684E-01
   6.345  0.695E-01  0.348E-01  0.348E-01
   6.370  0.590E-01  0.295E-01  0.295E-01
   6.395  0.113E+00  0.563E-01  0.563E-01
   6.420  0.108E+00  0.540E-01  0.540E-01
   6.445  0.416E-01  0.208E-01  0.208E-01
   6.470  0.337E-02  0.169E-02  0.169E-02
   6.495  0.203E-01  0.101E-01  0.101E-01
   6.520  0.126E+00  0.632E-01  0.632E-01
   6.545  0.224E+00  0.112E+00  0.112E+00
   6.570  0.101E+00  0.507E-01  0.507E-01
   6.595  0.510E-01  0.255E-01  0.255E-01
   6.620  0.176E-01  0.882E-02  0.882E-02
   6.645  0.187E-01  0.937E-02  0.937E-02
   6.670  0.990E-01  0.495E-01  0.495E-01
   6.695  0.130E+00  0.648E-01  0.648E-01
   6.720  0.470E-01  0.235E-01  0.235E-01
   6.745  0.957E-01  0.479E-01  0.479E-01
   6.770  0.130E+00  0.649E-01  0.649E-01
   6.795  0.107E+00  0.536E-01  0.536E-01
   6.820  0.711E-01  0.356E-01  0.356E-01
   6.845  0.162E-01  0.812E-02  0.812E-02
   6.870  0.332E-01  0.166E-01  0.166E-01
   6.895  0.921E-01  0.460E-01  0.460E-01
   6.920  0.142E+00  0.711E-01  0.711E-01
   6.945  0.130E+00  0.650E-01  0.650E-01
   6.970  0.459E-01  0.229E-01  0.229E-01
   6.995  0.344E-01  0.172E-01  0.172E-01
   7.020  0.383E-01  0.191E-01  0.191E-01
   7.045  0.182E-01  0.910E-02  0.910E-02
   7.070  0.455E-01  0.227E-01  0.227E-01
   7.095  0.174E+00  0.871E-01  0.871E-01
   7.120  0.172E+00  0.861E-01  0.861E-01
   7.145  0.715E-01  0.358E-01  0.358E-01
   7.170  0.115E+00  0.577E-01  0.577E-01
   7.195  0.972E-01  0.486E-01  0.486E-01
   7.220  0.128E+00  0.640E-01  0.640E-01
   7.245  0.198E+00  0.988E-01  0.988E-01
   7.270  0.326E+00  0.163E+00  0.163E+00
   7.295  0.365E+00  0.182E+00  0.182E+00
   7.320  0.132E+00  0.660E-01  0.660E-01
   7.345  0.230E-01  0.115E-01  0.115E-01
   7.370  0.646E-01  0.323E-01  0.323E-01
   7.395  0.205E+00  0.102E+00  0.102E+00
   7.420  0.417E+00  0.208E+00  0.208E+00
   7.445  0.291E+00  0.145E+00  0.145E+00
   7.470  0.113E+00  0.563E-01  0.563E-01
   7.495  0.152E-01  0.758E-02  0.758E-02
   7.520  0.359E-01  0.179E-01  0.179E-01
   7.545  0.589E-01  0.295E-01  0.295E-01
   7.570  0.111E+00  0.555E-01  0.555E-01
   7.595  0.181E+00  0.906E-01  0.906E-01
   7.620  0.178E+00  0.889E-01  0.889E-01
   7.645  0.102E+00  0.511E-01  0.511E-01
   7.670  0.589E-01  0.295E-01  0.295E-01
   7.695  0.126E+00  0.631E-01  0.631E-01
   7.720  0.216E+00  0.108E+00  0.108E+00
   7.745  0.900E-01  0.450E-01  0.450E-01
   7.770  0.411E-01  0.205E-01  0.205E-01
   7.795  0.367E-01  0.184E-01  0.184E-01
   7.820  0.109E+00  0.543E-01  0.543E-01
   7.845  0.123E+00  0.617E-01  0.617E-01
   7.870  0.391E-01  0.195E-01  0.195E-01
   7.895  0.208E-01  0.104E-01  0.104E-01
   7.920  0.130E+00  0.652E-01  0.652E-01
   7.945  0.205E+00  0.102E+00  0.102E+00
   7.970  0.625E-01  0.313E-01  0.313E-01
   7.995  0.187E-01  0.937E-02  0.937E-02
   8.020  0.752E-02  0.376E-02  0.376E-02
   8.045  0.202E-01  0.101E-01  0.101E-01
   8.070  0.257E-01  0.128E-01  0.128E-01
   8.095  0.421E-01  0.211E-01  0.211E-01
   8.120  0.163E-01  0.815E-02  0.815E-02
   8.145  0.873E-03  0.437E-03  0.437E-03
   8.170  0.633E-05  0.316E-05  0.316E-05
   8.195  0.621E-08  0.311E-08  0.311E-08
