# E(eV)   ldos(E)   pdos(E)_1   pdos(E)_2   
  -7.905  0.924E-05  0.462E-05  0.462E-05
  -7.880  0.164E-02  0.818E-03  0.818E-03
  -7.855  0.515E-01  0.257E-01  0.257E-01
  -7.830  0.384E+00  0.192E+00  0.192E+00
  -7.805  0.874E+00  0.437E+00  0.437E+00
  -7.780  0.618E+00  0.309E+00  0.309E+00
  -7.755  0.314E+00  0.157E+00  0.157E+00
  -7.730  0.459E+00  0.229E+00  0.229E+00
  -7.705  0.444E+00  0.222E+00  0.222E+00
  -7.680  0.214E+00  0.107E+00  0.107E+00
  -7.655  0.141E+00  0.707E-01  0.707E-01
  -7.630  0.254E+00  0.127E+00  0.127E+00
  -7.605  0.259E+00  0.129E+00  0.129E+00
  -7.580  0.275E+00  0.137E+00  0.137E+00
  -7.555  0.130E+00  0.652E-01  0.652E-01
  -7.530  0.160E+00  0.799E-01  0.799E-01
  -7.505  0.255E+00  0.128E+00  0.128E+00
  -7.480  0.255E+00  0.127E+00  0.127E+00
  -7.455  0.312E+00  0.156E+00  0.156E+00
  -7.430  0.264E+00  0.132E+00  0.132E+00
  -7.405  0.208E+00  0.104E+00  0.104E+00
  -7.380  0.803E-01  0.402E-01  0.402E-01
  -7.355  0.112E+00  0.559E-01  0.559E-01
  -7.330  0.188E+00  0.940E-01  0.940E-01
  -7.305  0.124E+00  0.621E-01  0.621E-01
  -7.280  0.143E+00  0.717E-01  0.717E-01
  -7.255  0.237E+00  0.119E+00  0.119E+00
  -7.230  0.135E+00  0.674E-01  0.674E-01
  -7.205  0.368E-01  0.184E-01  0.184E-01
  -7.180  0.123E-01  0.613E-02  0.613E-02
  -7.155  0.107E+00  0.534E-01  0.534E-01
  -7.130  0.302E+00  0.151E+00  0.151E+00
  -7.105  0.188E+00  0.941E-01  0.941E-01
  -7.080  0.198E-01  0.990E-02  0.990E-02
  -7.055  0.161E-02  0.805E-03  0.805E-03
  -7.030  0.431E-01  0.215E-01  0.215E-01
  -7.005  0.234E+00  0.117E+00  0.117E+00
  -6.980  0.250E+00  0.125E+00  0.125E+00
  -6.955  0.103E+00  0.516E-01  0.516E-01
  -6.930  0.185E+00  0.925E-01  0.925E-01
  -6.905  0.236E+00  0.118E+00  0.118E+00
  -6.880  0.182E+00  0.910E-01  0.910E-01
  -6.855  0.703E-01  0.352E-01  0.352E-01
  -6.830  0.115E+00  0.576E-01  0.576E-01
  -6.805  0.149E+00  0.746E-01  0.746E-01
  -6.780  0.778E-01  0.389E-01  0.389E-01
  -6.755  0.723E-01  0.362E-01  0.362E-01
  -6.730  0.834E-01  0.417E-01  0.417E-01
  -6.705  0.104E+00  0.522E-01  0.522E-01
  -6.680  0.229E+00  0.114E+00  0.114E+00
  -6.655  0.970E-01  0.485E-01  0.485E-01
  -6.630  0.853E-01  0.427E-01  0.427E-01
  -6.605  0.181E+00  0.903E-01  0.903E-01
  -6.580  0.123E+00  0.614E-01  0.614E-01
  -6.555  0.515E-01  0.257E-01  0.257E-01
  -6.530  0.628E-01  0.314E-01  0.314E-01
  -6.505  0.107E+00  0.533E-01  0.533E-01
  -6.480  0.738E-01  0.369E-01  0.369E-01
  -6.455  0.979E-01  0.489E-01  0.489E-01
  -6.430  0.202E+00  0.101E+00  0.101E+00
  -6.405  0.227E+00  0.114E+00  0.114E+00
  -6.380  0.658E-01  0.329E-01  0.329E-01
  -6.355  0.797E-02  0.399E-02  0.399E-02
  -6.330  0.376E-02  0.188E-02  0.188E-02
  -6.305  0.507E-01  0.254E-01  0.254E-01
  -6.280  0.134E+00  0.671E-01  0.671E-01
  -6.255  0.700E-01  0.350E-01  0.350E-01
  -6.230  0.189E-01  0.943E-02  0.943E-02
  -6.205  0.537E-01  0.268E-01  0.268E-01
  -6.180  0.674E-01  0.337E-01  0.337E-01
  -6.155  0.166E+00  0.832E-01  0.832E-01
  -6.130  0.182E+00  0.909E-01  0.909E-01
  -6.105  0.134E+00  0.668E-01  0.668E-01
  -6.080  0.699E-01  0.350E-01  0.350E-01
  -6.055  0.104E+00  0.521E-01  0.521E-01
  -6.030  0.572E-01  0.286E-01  0.286E-01
  -6.005  0.767E-01  0.384E-01  0.384E-01
  -5.980  0.121E+00  0.604E-01  0.604E-01
  -5.955  0.723E-01  0.362E-01  0.362E-01
  -5.930  0.234E-01  0.117E-01  0.117E-01
  -5.905  0.210E-01  0.105E-01  0.105E-01
  -5.880  0.822E-01  0.411E-01  0.411E-01
  -5.855  0.180E+00  0.902E-01  0.902E-01
  -5.830  0.109E+00  0.545E-01  0.545E-01
  -5.805  0.138E+00  0.691E-01  0.691E-01
  -5.780  0.202E+00  0.101E+00  0.101E+00
  -5.755  0.812E-01  0.406E-01  0.406E-01
  -5.730  0.300E-01  0.150E-01  0.150E-01
  -5.705  0.127E+00  0.633E-01  0.633E-01
  -5.680  0.116E+00  0.580E-01  0.580E-01
  -5.655  0.185E-01  0.926E-02  0.926E-02
  -5.630  0.279E-02  0.140E-02  0.140E-02
  -5.605  0.429E-01  0.215E-01  0.215E-01
  -5.580  0.130E+00  0.650E-01  0.650E-01
  -5.555  0.133E+00  0.665E-01  0.665E-01
  -5.530  0.537E-01  0.268E-01  0.268E-01
  -5.505  0.424E-01  0.212E-01  0.212E-01
  -5.480  0.143E+00  0.714E-01  0.714E-01
  -5.455  0.883E-01  0.441E-01  0.441E-01
  -5.430  0.103E-01  0.515E-02  0.515E-02
  -5.405  0.693E-02  0.347E-02  0.347E-02
  -5.380  0.864E-01  0.432E-01  0.432E-01
  -5.355  0.162E+00  0.810E-01  0.810E-01
  -5.330  0.455E-01  0.227E-01  0.227E-01
  -5.305  0.118E-01  0.589E-02  0.589E-02
  -5.280  0.502E-01  0.251E-01  0.251E-01
  -5.255  0.420E-01  0.210E-01  0.210E-01
  -5.230  0.321E-01  0.160E-01  0.160E-01
  -5.205  0.213E-01  0.107E-01  0.107E-01
  -5.180  0.717E-01  0.358E-01  0.358E-01
  -5.155  0.992E-01  0.496E-01  0.496E-01
  -5.130  0.378E-01  0.189E-01  0.189E-01
  -5.105  0.652E-01  0.326E-01  0.326E-01
  -5.080  0.783E-01  0.392E-01  0.392E-01
  -5.055  0.224E+00  0.112E+00  0.112E+00
  -5.030  0.185E+00  0.923E-01  0.923E-01
  -5.005  0.328E-01  0.164E-01  0.164E-01
  -4.980  0.299E-01  0.149E-01  0.149E-01
  -4.955  0.121E+00  0.604E-01  0.604E-01
  -4.930  0.130E+00  0.652E-01  0.652E-01
  -4.905  0.726E-01  0.363E-01  0.363E-01
  -4.880  0.962E-01  0.481E-01  0.481E-01
  -4.855  0.285E+00  0.142E+00  0.142E+00
  -4.830  0.224E+00  0.112E+00  0.112E+00
  -4.805  0.568E-01  0.284E-01  0.284E-01
  -4.780  0.115E+00  0.577E-01  0.577E-01
  -4.755  0.869E-01  0.434E-01  0.434E-01
  -4.730  0.679E-01  0.339E-01  0.339E-01
  -4.705  0.309E-01  0.154E-01  0.154E-01
  -4.680  0.715E-02  0.358E-02  0.358E-02
  -4.655  0.686E-01  0.343E-01  0.343E-01
  -4.630  0.205E+00  0.102E+00  0.102E+00
  -4.605  0.142E+00  0.708E-01  0.708E-01
  -4.580  0.603E-01  0.302E-01  0.302E-01
  -4.555  0.206E+00  0.103E+00  0.103E+00
  -4.530  0.187E+00  0.935E-01  0.935E-01
  -4.505  0.179E+00  0.895E-01  0.895E-01
  -4.480  0.113E+00  0.567E-01  0.567E-01
  -4.455  0.167E-01  0.834E-02  0.834E-02
  -4.430  0.143E-01  0.715E-02  0.715E-02
  -4.405  0.108E+00  0.542E-01  0.542E-01
  -4.380  0.163E+00  0.815E-01  0.815E-01
  -4.355  0.172E+00  0.859E-01  0.859E-01
  -4.330  0.213E+00  0.106E+00  0.106E+00
  -4.305  0.203E+00  0.101E+00  0.101E+00
  -4.280  0.592E-01  0.296E-01  0.296E-01
  -4.255  0.149E+00  0.745E-01  0.745E-01
  -4.230  0.404E+00  0.202E+00  0.202E+00
  -4.205  0.245E+00  0.123E+00  0.123E+00
  -4.180  0.239E-01  0.120E-01  0.120E-01
  -4.155  0.341E-03  0.171E-03  0.171E-03
  -4.130  0.158E-05  0.789E-06  0.789E-06
  -4.105  0.235E-03  0.117E-03  0.117E-03
  -4.080  0.880E-02  0.440E-02  0.440E-02
  -4.055  0.681E-01  0.340E-01  0.340E-01
  -4.030  0.231E+00  0.115E+00  0.115E+00
  -4.005  0.230E+00  0.115E+00  0.115E+00
  -3.980  0.254E+00  0.127E+00  0.127E+00
  -3.955  0.362E+00  0.181E+00  0.181E+00
  -3.930  0.155E+00  0.776E-01  0.776E-01
  -3.905  0.726E-01  0.363E-01  0.363E-01
  -3.880  0.109E+00  0.547E-01  0.547E-01
  -3.855  0.148E+00  0.741E-01  0.741E-01
  -3.830  0.154E+00  0.769E-01  0.769E-01
  -3.805  0.141E+00  0.704E-01  0.704E-01
  -3.780  0.152E+00  0.759E-01  0.759E-01
  -3.755  0.124E+00  0.621E-01  0.621E-01
  -3.730  0.162E+00  0.811E-01  0.811E-01
  -3.705  0.252E+00  0.126E+00  0.126E+00
  -3.680  0.182E+00  0.911E-01  0.911E-01
  -3.655  0.159E+00  0.797E-01  0.797E-01
  -3.630  0.110E+00  0.552E-01  0.552E-01
  -3.605  0.173E+00  0.865E-01  0.865E-01
  -3.580  0.940E-01  0.470E-01  0.470E-01
  -3.555  0.424E-01  0.212E-01  0.212E-01
  -3.530  0.645E-01  0.323E-01  0.323E-01
  -3.505  0.106E+00  0.532E-01  0.532E-01
  -3.480  0.102E+00  0.508E-01  0.508E-01
  -3.455  0.400E-01  0.200E-01  0.200E-01
  -3.430  0.972E-01  0.486E-01  0.486E-01
  -3.405  0.239E+00  0.120E+00  0.120E+00
  -3.380  0.311E+00  0.156E+00  0.156E+00
  -3.355  0.254E+00  0.127E+00  0.127E+00
  -3.330  0.138E+00  0.690E-01  0.690E-01
  -3.305  0.122E+00  0.610E-01  0.610E-01
  -3.280  0.123E+00  0.616E-01  0.616E-01
  -3.255  0.232E+00  0.116E+00  0.116E+00
  -3.230  0.223E+00  0.112E+00  0.112E+00
  -3.205  0.876E-01  0.438E-01  0.438E-01
  -3.180  0.959E-02  0.480E-02  0.480E-02
  -3.155  0.321E-01  0.160E-01  0.160E-01
  -3.130  0.133E+00  0.665E-01  0.665E-01
  -3.105  0.120E+00  0.600E-01  0.600E-01
  -3.080  0.549E-01  0.274E-01  0.274E-01
  -3.055  0.764E-01  0.382E-01  0.382E-01
  -3.030  0.122E+00  0.612E-01  0.612E-01
  -3.005  0.848E-01  0.424E-01  0.424E-01
  -2.980  0.406E-01  0.203E-01  0.203E-01
  -2.955  0.940E-01  0.470E-01  0.470E-01
  -2.930  0.688E-01  0.344E-01  0.344E-01
  -2.905  0.532E-01  0.266E-01  0.266E-01
  -2.880  0.476E-01  0.238E-01  0.238E-01
  -2.855  0.222E+00  0.111E+00  0.111E+00
  -2.830  0.263E+00  0.132E+00  0.132E+00
  -2.805  0.237E+00  0.119E+00  0.119E+00
  -2.780  0.145E+00  0.724E-01  0.724E-01
  -2.755  0.195E-01  0.975E-02  0.975E-02
  -2.730  0.659E-01  0.329E-01  0.329E-01
  -2.705  0.112E+00  0.560E-01  0.560E-01
  -2.680  0.652E-01  0.326E-01  0.326E-01
  -2.655  0.496E-01  0.248E-01  0.248E-01
  -2.630  0.555E-01  0.278E-01  0.278E-01
  -2.605  0.803E-01  0.401E-01  0.401E-01
  -2.580  0.979E-01  0.489E-01  0.489E-01
  -2.555  0.226E+00  0.113E+00  0.113E+00
  -2.530  0.211E+00  0.105E+00  0.105E+00
  -2.505  0.124E+00  0.620E-01  0.620E-01
  -2.480  0.113E+00  0.567E-01  0.567E-01
  -2.455  0.965E-01  0.483E-01  0.483E-01
  -2.430  0.175E+00  0.873E-01  0.873E-01
  -2.405  0.185E+00  0.924E-01  0.924E-01
  -2.380  0.169E+00  0.846E-01  0.846E-01
  -2.355  0.840E-01  0.420E-01  0.420E-01
  -2.330  0.192E+00  0.962E-01  0.962E-01
  -2.305  0.159E+00  0.795E-01  0.795E-01
  -2.280  0.764E-01  0.382E-01  0.382E-01
  -2.255  0.956E-01  0.478E-01  0.478E-01
  -2.230  0.127E+00  0.633E-01  0.633E-01
  -2.205  0.352E-01  0.176E-01  0.176E-01
  -2.180  0.203E-01  0.102E-01  0.102E-01
  -2.155  0.169E+00  0.845E-01  0.845E-01
  -2.130  0.385E+00  0.192E+00  0.192E+00
  -2.105  0.234E+00  0.117E+00  0.117E+00
  -2.080  0.330E-01  0.165E-01  0.165E-01
  -2.055  0.426E-01  0.213E-01  0.213E-01
  -2.030  0.302E-01  0.151E-01  0.151E-01
  -2.005  0.292E-02  0.146E-02  0.146E-02
  -1.980  0.258E-03  0.129E-03  0.129E-03
  -1.955  0.303E-02  0.151E-02  0.151E-02
  -1.930  0.571E-02  0.285E-02  0.285E-02
  -1.905  0.650E-02  0.325E-02  0.325E-02
  -1.880  0.712E-01  0.356E-01  0.356E-01
  -1.855  0.149E+00  0.745E-01  0.745E-01
  -1.830  0.458E-01  0.229E-01  0.229E-01
  -1.805  0.248E-02  0.124E-02  0.124E-02
  -1.780  0.155E-01  0.776E-02  0.776E-02
  -1.755  0.835E-01  0.418E-01  0.418E-01
  -1.730  0.107E+00  0.535E-01  0.535E-01
  -1.705  0.166E+00  0.830E-01  0.830E-01
  -1.680  0.740E-01  0.370E-01  0.370E-01
  -1.655  0.471E-02  0.235E-02  0.235E-02
  -1.630  0.437E-04  0.219E-04  0.219E-04
  -1.605  0.315E-03  0.157E-03  0.157E-03
  -1.580  0.500E-02  0.250E-02  0.250E-02
  -1.555  0.157E-01  0.786E-02  0.786E-02
  -1.530  0.872E-01  0.436E-01  0.436E-01
  -1.505  0.196E+00  0.979E-01  0.979E-01
  -1.480  0.111E+00  0.557E-01  0.557E-01
  -1.455  0.121E+00  0.604E-01  0.604E-01
  -1.430  0.133E+00  0.667E-01  0.667E-01
  -1.405  0.120E+00  0.598E-01  0.598E-01
  -1.380  0.440E-01  0.220E-01  0.220E-01
  -1.355  0.702E-01  0.351E-01  0.351E-01
  -1.330  0.140E+00  0.699E-01  0.699E-01
  -1.305  0.103E+00  0.517E-01  0.517E-01
  -1.280  0.121E+00  0.603E-01  0.603E-01
  -1.255  0.137E+00  0.683E-01  0.683E-01
  -1.230  0.116E+00  0.580E-01  0.580E-01
  -1.205  0.103E+00  0.517E-01  0.517E-01
  -1.180  0.194E-01  0.970E-02  0.970E-02
  -1.155  0.100E-02  0.502E-03  0.502E-03
  -1.130  0.806E-02  0.403E-02  0.403E-02
  -1.105  0.233E-01  0.117E-01  0.117E-01
  -1.080  0.143E-01  0.715E-02  0.715E-02
  -1.055  0.546E-01  0.273E-01  0.273E-01
  -1.030  0.795E-01  0.398E-01  0.398E-01
  -1.005  0.549E-01  0.275E-01  0.275E-01
  -0.980  0.106E+00  0.531E-01  0.531E-01
  -0.955  0.130E+00  0.648E-01  0.648E-01
  -0.930  0.859E-01  0.429E-01  0.429E-01
  -0.905  0.413E-01  0.206E-01  0.206E-01
  -0.880  0.721E-01  0.361E-01  0.361E-01
  -0.855  0.937E-01  0.469E-01  0.469E-01
  -0.830  0.408E-01  0.204E-01  0.204E-01
  -0.805  0.775E-01  0.387E-01  0.387E-01
  -0.780  0.115E+00  0.576E-01  0.576E-01
  -0.755  0.813E-01  0.407E-01  0.407E-01
  -0.730  0.665E-01  0.332E-01  0.332E-01
  -0.705  0.196E-01  0.978E-02  0.978E-02
  -0.680  0.659E-01  0.330E-01  0.330E-01
  -0.655  0.145E+00  0.725E-01  0.725E-01
  -0.630  0.945E-01  0.473E-01  0.473E-01
  -0.605  0.646E-01  0.323E-01  0.323E-01
  -0.580  0.725E-01  0.363E-01  0.363E-01
  -0.555  0.274E-01  0.137E-01  0.137E-01
  -0.530  0.225E-01  0.113E-01  0.113E-01
  -0.505  0.107E+00  0.535E-01  0.535E-01
  -0.480  0.163E+00  0.814E-01  0.814E-01
  -0.455  0.130E+00  0.651E-01  0.651E-01
  -0.430  0.120E+00  0.599E-01  0.599E-01
  -0.405  0.757E-01  0.379E-01  0.379E-01
  -0.380  0.176E-01  0.882E-02  0.882E-02
  -0.355  0.180E-01  0.898E-02  0.898E-02
  -0.330  0.883E-01  0.442E-01  0.442E-01
  -0.305  0.111E+00  0.554E-01  0.554E-01
  -0.280  0.341E-01  0.171E-01  0.171E-01
  -0.255  0.617E-01  0.308E-01  0.308E-01
  -0.230  0.136E+00  0.678E-01  0.678E-01
  -0.205  0.922E-01  0.461E-01  0.461E-01
  -0.180  0.343E-01  0.171E-01  0.171E-01
  -0.155  0.746E-01  0.373E-01  0.373E-01
  -0.130  0.949E-01  0.474E-01  0.474E-01
  -0.105  0.920E-01  0.460E-01  0.460E-01
  -0.080  0.446E-01  0.223E-01  0.223E-01
  -0.055  0.136E-01  0.682E-02  0.682E-02
  -0.030  0.372E-01  0.186E-01  0.186E-01
  -0.005  0.603E-01  0.301E-01  0.301E-01
   0.020  0.774E-01  0.387E-01  0.387E-01
   0.045  0.128E+00  0.638E-01  0.638E-01
   0.070  0.994E-01  0.497E-01  0.497E-01
   0.095  0.107E+00  0.534E-01  0.534E-01
   0.120  0.682E-01  0.341E-01  0.341E-01
   0.145  0.834E-01  0.417E-01  0.417E-01
   0.170  0.726E-01  0.363E-01  0.363E-01
   0.195  0.507E-01  0.253E-01  0.253E-01
   0.220  0.221E-01  0.111E-01  0.111E-01
   0.245  0.656E-01  0.328E-01  0.328E-01
   0.270  0.951E-01  0.476E-01  0.476E-01
   0.295  0.308E-01  0.154E-01  0.154E-01
   0.320  0.368E-02  0.184E-02  0.184E-02
   0.345  0.213E-01  0.107E-01  0.107E-01
   0.370  0.908E-01  0.454E-01  0.454E-01
   0.395  0.673E-01  0.336E-01  0.336E-01
   0.420  0.605E-01  0.302E-01  0.302E-01
   0.445  0.130E+00  0.652E-01  0.652E-01
   0.470  0.868E-01  0.434E-01  0.434E-01
   0.495  0.199E-01  0.994E-02  0.994E-02
   0.520  0.432E-01  0.216E-01  0.216E-01
   0.545  0.612E-01  0.306E-01  0.306E-01
   0.570  0.358E-01  0.179E-01  0.179E-01
   0.595  0.118E-01  0.588E-02  0.588E-02
   0.620  0.441E-01  0.221E-01  0.221E-01
   0.645  0.471E-01  0.235E-01  0.235E-01
   0.670  0.672E-01  0.336E-01  0.336E-01
   0.695  0.929E-01  0.465E-01  0.465E-01
   0.720  0.101E+00  0.507E-01  0.507E-01
   0.745  0.902E-01  0.451E-01  0.451E-01
   0.770  0.439E-01  0.220E-01  0.220E-01
   0.795  0.751E-01  0.375E-01  0.375E-01
   0.820  0.699E-01  0.350E-01  0.350E-01
   0.845  0.233E-01  0.116E-01  0.116E-01
   0.870  0.203E-02  0.101E-02  0.101E-02
   0.895  0.222E-02  0.111E-02  0.111E-02
   0.920  0.311E-01  0.155E-01  0.155E-01
   0.945  0.121E+00  0.603E-01  0.603E-01
   0.970  0.132E+00  0.659E-01  0.659E-01
   0.995  0.829E-01  0.414E-01  0.414E-01
   1.020  0.105E+00  0.527E-01  0.527E-01
   1.045  0.829E-01  0.415E-01  0.415E-01
   1.070  0.203E-01  0.102E-01  0.102E-01
   1.095  0.363E-01  0.182E-01  0.182E-01
   1.120  0.665E-01  0.332E-01  0.332E-01
   1.145  0.202E-01  0.101E-01  0.101E-01
   1.170  0.247E-01  0.123E-01  0.123E-01
   1.195  0.630E-01  0.315E-01  0.315E-01
   1.220  0.424E-01  0.212E-01  0.212E-01
   1.245  0.554E-01  0.277E-01  0.277E-01
   1.270  0.985E-01  0.493E-01  0.493E-01
   1.295  0.133E+00  0.664E-01  0.664E-01
   1.320  0.691E-01  0.346E-01  0.346E-01
   1.345  0.656E-01  0.328E-01  0.328E-01
   1.370  0.347E-01  0.174E-01  0.174E-01
   1.395  0.270E-01  0.135E-01  0.135E-01
   1.420  0.277E-01  0.138E-01  0.138E-01
   1.445  0.195E-01  0.976E-02  0.976E-02
   1.470  0.378E-01  0.189E-01  0.189E-01
   1.495  0.447E-01  0.223E-01  0.223E-01
   1.520  0.343E-01  0.172E-01  0.172E-01
   1.545  0.198E-01  0.988E-02  0.988E-02
   1.570  0.488E-01  0.244E-01  0.244E-01
   1.595  0.423E-01  0.212E-01  0.212E-01
   1.620  0.389E-01  0.195E-01  0.195E-01
   1.645  0.544E-01  0.272E-01  0.272E-01
   1.670  0.571E-01  0.286E-01  0.286E-01
   1.695  0.386E-01  0.193E-01  0.193E-01
   1.720  0.209E-01  0.104E-01  0.104E-01
   1.745  0.439E-02  0.219E-02  0.219E-02
   1.770  0.227E-02  0.113E-02  0.113E-02
   1.795  0.597E-02  0.299E-02  0.299E-02
   1.820  0.365E-01  0.182E-01  0.182E-01
   1.845  0.408E-01  0.204E-01  0.204E-01
   1.870  0.113E-01  0.563E-02  0.563E-02
   1.895  0.399E-01  0.200E-01  0.200E-01
   1.920  0.920E-01  0.460E-01  0.460E-01
   1.945  0.122E+00  0.612E-01  0.612E-01
   1.970  0.943E-01  0.472E-01  0.472E-01
   1.995  0.405E-01  0.203E-01  0.203E-01
   2.020  0.276E-01  0.138E-01  0.138E-01
   2.045  0.202E-01  0.101E-01  0.101E-01
   2.070  0.194E-01  0.972E-02  0.972E-02
   2.095  0.533E-02  0.267E-02  0.267E-02
   2.120  0.487E-03  0.243E-03  0.243E-03
   2.145  0.815E-03  0.407E-03  0.407E-03
   2.170  0.356E-02  0.178E-02  0.178E-02
   2.195  0.201E-01  0.100E-01  0.100E-01
   2.220  0.686E-01  0.343E-01  0.343E-01
   2.245  0.698E-01  0.349E-01  0.349E-01
   2.270  0.655E-01  0.328E-01  0.328E-01
   2.295  0.487E-01  0.243E-01  0.243E-01
   2.320  0.586E-01  0.293E-01  0.293E-01
   2.345  0.422E-01  0.211E-01  0.211E-01
   2.370  0.935E-02  0.467E-02  0.467E-02
   2.395  0.127E-01  0.634E-02  0.634E-02
   2.420  0.196E-01  0.982E-02  0.982E-02
   2.445  0.842E-02  0.421E-02  0.421E-02
   2.470  0.242E-01  0.121E-01  0.121E-01
   2.495  0.382E-01  0.191E-01  0.191E-01
   2.520  0.356E-01  0.178E-01  0.178E-01
   2.545  0.282E-01  0.141E-01  0.141E-01
   2.570  0.175E-01  0.873E-02  0.873E-02
   2.595  0.256E-01  0.128E-01  0.128E-01
   2.620  0.919E-02  0.459E-02  0.459E-02
   2.645  0.860E-02  0.430E-02  0.430E-02
   2.670  0.339E-01  0.169E-01  0.169E-01
   2.695  0.237E-01  0.118E-01  0.118E-01
   2.720  0.402E-02  0.201E-02  0.201E-02
   2.745  0.559E-02  0.280E-02  0.280E-02
   2.770  0.832E-02  0.416E-02  0.416E-02
   2.795  0.126E-01  0.631E-02  0.631E-02
   2.820  0.331E-01  0.165E-01  0.165E-01
   2.845  0.340E-01  0.170E-01  0.170E-01
   2.870  0.310E-01  0.155E-01  0.155E-01
   2.895  0.485E-01  0.243E-01  0.243E-01
   2.920  0.376E-01  0.188E-01  0.188E-01
   2.945  0.327E-01  0.164E-01  0.164E-01
   2.970  0.238E-01  0.119E-01  0.119E-01
   2.995  0.199E-01  0.996E-02  0.996E-02
   3.020  0.997E-02  0.499E-02  0.499E-02
   3.045  0.670E-02  0.335E-02  0.335E-02
   3.070  0.232E-01  0.116E-01  0.116E-01
   3.095  0.218E-01  0.109E-01  0.109E-01
   3.120  0.204E-01  0.102E-01  0.102E-01
   3.145  0.111E-01  0.554E-02  0.554E-02
   3.170  0.489E-02  0.244E-02  0.244E-02
   3.195  0.285E-02  0.143E-02  0.143E-02
   3.220  0.890E-02  0.445E-02  0.445E-02
   3.245  0.104E-01  0.518E-02  0.518E-02
   3.270  0.125E-01  0.624E-02  0.624E-02
   3.295  0.149E-01  0.744E-02  0.744E-02
   3.320  0.453E-02  0.227E-02  0.227E-02
   3.345  0.102E-02  0.510E-03  0.510E-03
   3.370  0.993E-03  0.496E-03  0.496E-03
   3.395  0.180E-03  0.900E-04  0.900E-04
   3.420  0.349E-04  0.175E-04  0.175E-04
   3.445  0.666E-03  0.333E-03  0.333E-03
   3.470  0.911E-02  0.455E-02  0.455E-02
   3.495  0.204E-01  0.102E-01  0.102E-01
   3.520  0.230E-01  0.115E-01  0.115E-01
   3.545  0.246E-01  0.123E-01  0.123E-01
   3.570  0.117E-01  0.583E-02  0.583E-02
   3.595  0.144E-01  0.718E-02  0.718E-02
   3.620  0.839E-02  0.419E-02  0.419E-02
   3.645  0.205E-02  0.102E-02  0.102E-02
   3.670  0.229E-02  0.115E-02  0.115E-02
   3.695  0.145E-01  0.723E-02  0.723E-02
   3.720  0.204E-01  0.102E-01  0.102E-01
   3.745  0.153E-01  0.767E-02  0.767E-02
   3.770  0.147E-01  0.735E-02  0.735E-02
   3.795  0.999E-02  0.499E-02  0.499E-02
   3.820  0.498E-02  0.249E-02  0.249E-02
   3.845  0.526E-02  0.263E-02  0.263E-02
   3.870  0.123E-02  0.617E-03  0.617E-03
   3.895  0.615E-03  0.308E-03  0.308E-03
   3.920  0.103E-02  0.515E-03  0.515E-03
   3.945  0.225E-02  0.113E-02  0.113E-02
   3.970  0.258E-02  0.129E-02  0.129E-02
   3.995  0.360E-02  0.180E-02  0.180E-02
   4.020  0.291E-02  0.145E-02  0.145E-02
   4.045  0.396E-02  0.198E-02  0.198E-02
   4.070  0.125E-02  0.625E-03  0.625E-03
   4.095  0.543E-04  0.271E-04  0.271E-04
   4.120  0.920E-05  0.460E-05  0.460E-05
   4.145  0.284E-03  0.142E-03  0.142E-03
   4.170  0.152E-02  0.760E-03  0.760E-03
   4.195  0.382E-02  0.191E-02  0.191E-02
   4.220  0.520E-02  0.260E-02  0.260E-02
   4.245  0.651E-02  0.326E-02  0.326E-02
   4.270  0.528E-02  0.264E-02  0.264E-02
   4.295  0.795E-03  0.397E-03  0.397E-03
   4.320  0.124E-02  0.620E-03  0.620E-03
   4.345  0.319E-02  0.159E-02  0.159E-02
   4.370  0.127E-02  0.634E-03  0.634E-03
   4.395  0.818E-04  0.409E-04  0.409E-04
   4.420  0.557E-03  0.279E-03  0.279E-03
   4.445  0.423E-02  0.212E-02  0.212E-02
   4.470  0.581E-02  0.290E-02  0.290E-02
   4.495  0.169E-02  0.844E-03  0.844E-03
   4.520  0.840E-03  0.420E-03  0.420E-03
   4.545  0.443E-03  0.221E-03  0.221E-03
   4.570  0.348E-04  0.174E-04  0.174E-04
   4.595  0.371E-06  0.186E-06  0.186E-06
   4.620  0.256E-06  0.128E-06  0.128E-06
   4.645  0.241E-04  0.120E-04  0.120E-04
   4.670  0.307E-03  0.153E-03  0.153E-03
   4.695  0.528E-03  0.264E-03  0.264E-03
   4.720  0.124E-03  0.618E-04  0.618E-04
   4.745  0.626E-05  0.313E-05  0.313E-05
   4.770  0.305E-05  0.153E-05  0.153E-05
   4.795  0.529E-06  0.264E-06  0.264E-06
   4.820  0.163E-07  0.817E-08  0.817E-08
   4.845  0.457E-08  0.228E-08  0.228E-08
   4.870  0.796E-08  0.398E-08  0.398E-08
   4.895  0.234E-08  0.117E-08  0.117E-08
   4.920  0.932E-10  0.466E-10  0.466E-10
   4.945  0.503E-12  0.252E-12  0.252E-12
   4.970  0.368E-15  0.184E-15  0.184E-15
   4.995  0.363E-19  0.182E-19  0.182E-19
   5.020  0.486E-24  0.243E-24  0.243E-24
   5.045  0.000E+00  0.000E+00  0.000E+00
   5.070  0.000E+00  0.000E+00  0.000E+00
   5.095  0.000E+00  0.000E+00  0.000E+00
   5.120  0.000E+00  0.000E+00  0.000E+00
   5.145  0.000E+00  0.000E+00  0.000E+00
   5.170  0.000E+00  0.000E+00  0.000E+00
   5.195  0.000E+00  0.000E+00  0.000E+00
   5.220  0.000E+00  0.000E+00  0.000E+00
   5.245  0.000E+00  0.000E+00  0.000E+00
   5.270  0.000E+00  0.000E+00  0.000E+00
   5.295  0.000E+00  0.000E+00  0.000E+00
   5.320  0.000E+00  0.000E+00  0.000E+00
   5.345  0.000E+00  0.000E+00  0.000E+00
   5.370  0.000E+00  0.000E+00  0.000E+00
   5.395  0.000E+00  0.000E+00  0.000E+00
   5.420  0.000E+00  0.000E+00  0.000E+00
   5.445  0.000E+00  0.000E+00  0.000E+00
   5.470  0.000E+00  0.000E+00  0.000E+00
   5.495  0.000E+00  0.000E+00  0.000E+00
   5.520  0.000E+00  0.000E+00  0.000E+00
   5.545  0.000E+00  0.000E+00  0.000E+00
   5.570  0.000E+00  0.000E+00  0.000E+00
   5.595  0.000E+00  0.000E+00  0.000E+00
   5.620  0.000E+00  0.000E+00  0.000E+00
   5.645  0.000E+00  0.000E+00  0.000E+00
   5.670  0.299E-19  0.150E-19  0.150E-19
   5.695  0.424E-14  0.212E-14  0.212E-14
   5.720  0.812E-10  0.406E-10  0.406E-10
   5.745  0.211E-06  0.105E-06  0.105E-06
   5.770  0.740E-04  0.370E-04  0.370E-04
   5.795  0.353E-02  0.177E-02  0.177E-02
   5.820  0.240E-01  0.120E-01  0.120E-01
   5.845  0.321E-01  0.160E-01  0.160E-01
   5.870  0.265E-01  0.133E-01  0.133E-01
   5.895  0.357E-01  0.179E-01  0.179E-01
   5.920  0.304E-01  0.152E-01  0.152E-01
   5.945  0.277E-01  0.138E-01  0.138E-01
   5.970  0.912E-02  0.456E-02  0.456E-02
   5.995  0.437E-03  0.219E-03  0.219E-03
   6.020  0.285E-05  0.142E-05  0.142E-05
   6.045  0.251E-08  0.125E-08  0.125E-08
   6.070  0.136E-07  0.682E-08  0.682E-08
   6.095  0.111E-04  0.557E-05  0.557E-05
   6.120  0.123E-02  0.616E-03  0.616E-03
   6.145  0.185E-01  0.923E-02  0.923E-02
   6.170  0.375E-01  0.187E-01  0.187E-01
   6.195  0.134E-01  0.671E-02  0.671E-02
   6.220  0.292E-01  0.146E-01  0.146E-01
   6.245  0.735E-01  0.367E-01  0.367E-01
   6.270  0.107E+00  0.537E-01  0.537E-01
   6.295  0.109E+00  0.545E-01  0.545E-01
   6.320  0.137E+00  0.683E-01  0.683E-01
   6.345  0.699E-01  0.350E-01  0.350E-01
   6.370  0.591E-01  0.295E-01  0.295E-01
   6.395  0.112E+00  0.562E-01  0.562E-01
   6.420  0.108E+00  0.540E-01  0.540E-01
   6.445  0.418E-01  0.209E-01  0.209E-01
   6.470  0.339E-02  0.169E-02  0.169E-02
   6.495  0.202E-01  0.101E-01  0.101E-01
   6.520  0.126E+00  0.631E-01  0.631E-01
   6.545  0.225E+00  0.112E+00  0.112E+00
   6.570  0.102E+00  0.508E-01  0.508E-01
   6.595  0.511E-01  0.256E-01  0.256E-01
   6.620  0.179E-01  0.895E-02  0.895E-02
   6.645  0.187E-01  0.937E-02  0.937E-02
   6.670  0.987E-01  0.494E-01  0.494E-01
   6.695  0.130E+00  0.648E-01  0.648E-01
   6.720  0.471E-01  0.236E-01  0.236E-01
   6.745  0.956E-01  0.478E-01  0.478E-01
   6.770  0.131E+00  0.656E-01  0.656E-01
   6.795  0.110E+00  0.551E-01  0.551E-01
   6.820  0.722E-01  0.361E-01  0.361E-01
   6.845  0.165E-01  0.824E-02  0.824E-02
   6.870  0.330E-01  0.165E-01  0.165E-01
   6.895  0.923E-01  0.462E-01  0.462E-01
   6.920  0.142E+00  0.712E-01  0.712E-01
   6.945  0.130E+00  0.649E-01  0.649E-01
   6.970  0.458E-01  0.229E-01  0.229E-01
   6.995  0.346E-01  0.173E-01  0.173E-01
   7.020  0.383E-01  0.192E-01  0.192E-01
   7.045  0.182E-01  0.910E-02  0.910E-02
   7.070  0.454E-01  0.227E-01  0.227E-01
   7.095  0.174E+00  0.869E-01  0.869E-01
   7.120  0.172E+00  0.861E-01  0.861E-01
   7.145  0.714E-01  0.357E-01  0.357E-01
   7.170  0.115E+00  0.576E-01  0.576E-01
   7.195  0.976E-01  0.488E-01  0.488E-01
   7.220  0.128E+00  0.639E-01  0.639E-01
   7.245  0.198E+00  0.988E-01  0.988E-01
   7.270  0.324E+00  0.162E+00  0.162E+00
   7.295  0.359E+00  0.179E+00  0.179E+00
   7.320  0.130E+00  0.648E-01  0.648E-01
   7.345  0.228E-01  0.114E-01  0.114E-01
   7.370  0.646E-01  0.323E-01  0.323E-01
   7.395  0.206E+00  0.103E+00  0.103E+00
   7.420  0.416E+00  0.208E+00  0.208E+00
   7.445  0.290E+00  0.145E+00  0.145E+00
   7.470  0.113E+00  0.566E-01  0.566E-01
   7.495  0.152E-01  0.762E-02  0.762E-02
   7.520  0.357E-01  0.179E-01  0.179E-01
   7.545  0.590E-01  0.295E-01  0.295E-01
   7.570  0.111E+00  0.554E-01  0.554E-01
   7.595  0.181E+00  0.904E-01  0.904E-01
   7.620  0.178E+00  0.888E-01  0.888E-01
   7.645  0.102E+00  0.510E-01  0.510E-01
   7.670  0.587E-01  0.293E-01  0.293E-01
   7.695  0.121E+00  0.604E-01  0.604E-01
   7.720  0.202E+00  0.101E+00  0.101E+00
   7.745  0.943E-01  0.472E-01  0.472E-01
   7.770  0.831E-01  0.415E-01  0.415E-01
   7.795  0.619E-01  0.310E-01  0.310E-01
   7.820  0.111E+00  0.553E-01  0.553E-01
   7.845  0.124E+00  0.619E-01  0.619E-01
   7.870  0.389E-01  0.195E-01  0.195E-01
   7.895  0.187E-01  0.933E-02  0.933E-02
   7.920  0.125E+00  0.623E-01  0.623E-01
   7.945  0.200E+00  0.100E+00  0.100E+00
   7.970  0.617E-01  0.308E-01  0.308E-01
   7.995  0.188E-01  0.938E-02  0.938E-02
   8.020  0.725E-02  0.362E-02  0.362E-02
   8.045  0.190E-01  0.948E-02  0.948E-02
   8.070  0.253E-01  0.127E-01  0.127E-01
   8.095  0.433E-01  0.216E-01  0.216E-01
   8.120  0.168E-01  0.839E-02  0.839E-02
   8.145  0.899E-03  0.449E-03  0.449E-03
   8.170  0.651E-05  0.326E-05  0.326E-05
   8.195  0.639E-08  0.319E-08  0.319E-08
