# E(eV)   ldos(E)   pdos(E)_1   pdos(E)_2   
  -7.905  0.895E-05  0.447E-05  0.447E-05
  -7.880  0.157E-02  0.783E-03  0.783E-03
  -7.855  0.480E-01  0.240E-01  0.240E-01
  -7.830  0.347E+00  0.174E+00  0.174E+00
  -7.805  0.797E+00  0.398E+00  0.398E+00
  -7.780  0.638E+00  0.319E+00  0.319E+00
  -7.755  0.340E+00  0.170E+00  0.170E+00
  -7.730  0.438E+00  0.219E+00  0.219E+00
  -7.705  0.444E+00  0.222E+00  0.222E+00
  -7.680  0.242E+00  0.121E+00  0.121E+00
  -7.655  0.142E+00  0.709E-01  0.709E-01
  -7.630  0.246E+00  0.123E+00  0.123E+00
  -7.605  0.260E+00  0.130E+00  0.130E+00
  -7.580  0.292E+00  0.146E+00  0.146E+00
  -7.555  0.150E+00  0.748E-01  0.748E-01
  -7.530  0.165E+00  0.823E-01  0.823E-01
  -7.505  0.256E+00  0.128E+00  0.128E+00
  -7.480  0.244E+00  0.122E+00  0.122E+00
  -7.455  0.300E+00  0.150E+00  0.150E+00
  -7.430  0.269E+00  0.134E+00  0.134E+00
  -7.405  0.217E+00  0.109E+00  0.109E+00
  -7.380  0.817E-01  0.408E-01  0.408E-01
  -7.355  0.105E+00  0.524E-01  0.524E-01
  -7.330  0.198E+00  0.992E-01  0.992E-01
  -7.305  0.125E+00  0.623E-01  0.623E-01
  -7.280  0.131E+00  0.653E-01  0.653E-01
  -7.255  0.244E+00  0.122E+00  0.122E+00
  -7.230  0.146E+00  0.730E-01  0.730E-01
  -7.205  0.387E-01  0.194E-01  0.194E-01
  -7.180  0.124E-01  0.620E-02  0.620E-02
  -7.155  0.102E+00  0.510E-01  0.510E-01
  -7.130  0.292E+00  0.146E+00  0.146E+00
  -7.105  0.209E+00  0.104E+00  0.104E+00
  -7.080  0.267E-01  0.134E-01  0.134E-01
  -7.055  0.184E-02  0.922E-03  0.922E-03
  -7.030  0.437E-01  0.219E-01  0.219E-01
  -7.005  0.236E+00  0.118E+00  0.118E+00
  -6.980  0.248E+00  0.124E+00  0.124E+00
  -6.955  0.102E+00  0.512E-01  0.512E-01
  -6.930  0.185E+00  0.926E-01  0.926E-01
  -6.905  0.234E+00  0.117E+00  0.117E+00
  -6.880  0.182E+00  0.911E-01  0.911E-01
  -6.855  0.747E-01  0.374E-01  0.374E-01
  -6.830  0.110E+00  0.549E-01  0.549E-01
  -6.805  0.139E+00  0.695E-01  0.695E-01
  -6.780  0.855E-01  0.427E-01  0.427E-01
  -6.755  0.750E-01  0.375E-01  0.375E-01
  -6.730  0.829E-01  0.414E-01  0.414E-01
  -6.705  0.968E-01  0.484E-01  0.484E-01
  -6.680  0.230E+00  0.115E+00  0.115E+00
  -6.655  0.105E+00  0.526E-01  0.526E-01
  -6.630  0.797E-01  0.398E-01  0.398E-01
  -6.605  0.173E+00  0.865E-01  0.865E-01
  -6.580  0.130E+00  0.650E-01  0.650E-01
  -6.555  0.518E-01  0.259E-01  0.259E-01
  -6.530  0.582E-01  0.291E-01  0.291E-01
  -6.505  0.111E+00  0.555E-01  0.555E-01
  -6.480  0.769E-01  0.384E-01  0.384E-01
  -6.455  0.968E-01  0.484E-01  0.484E-01
  -6.430  0.194E+00  0.972E-01  0.972E-01
  -6.405  0.233E+00  0.116E+00  0.116E+00
  -6.380  0.724E-01  0.362E-01  0.362E-01
  -6.355  0.101E-01  0.504E-02  0.504E-02
  -6.330  0.379E-02  0.190E-02  0.190E-02
  -6.305  0.499E-01  0.249E-01  0.249E-01
  -6.280  0.133E+00  0.665E-01  0.665E-01
  -6.255  0.688E-01  0.344E-01  0.344E-01
  -6.230  0.188E-01  0.942E-02  0.942E-02
  -6.205  0.546E-01  0.273E-01  0.273E-01
  -6.180  0.678E-01  0.339E-01  0.339E-01
  -6.155  0.164E+00  0.822E-01  0.822E-01
  -6.130  0.172E+00  0.861E-01  0.861E-01
  -6.105  0.134E+00  0.669E-01  0.669E-01
  -6.080  0.795E-01  0.398E-01  0.398E-01
  -6.055  0.105E+00  0.527E-01  0.527E-01
  -6.030  0.553E-01  0.276E-01  0.276E-01
  -6.005  0.701E-01  0.350E-01  0.350E-01
  -5.980  0.129E+00  0.644E-01  0.644E-01
  -5.955  0.768E-01  0.384E-01  0.384E-01
  -5.930  0.237E-01  0.119E-01  0.119E-01
  -5.905  0.211E-01  0.105E-01  0.105E-01
  -5.880  0.825E-01  0.412E-01  0.412E-01
  -5.855  0.181E+00  0.905E-01  0.905E-01
  -5.830  0.109E+00  0.546E-01  0.546E-01
  -5.805  0.138E+00  0.691E-01  0.691E-01
  -5.780  0.201E+00  0.101E+00  0.101E+00
  -5.755  0.798E-01  0.399E-01  0.399E-01
  -5.730  0.298E-01  0.149E-01  0.149E-01
  -5.705  0.127E+00  0.633E-01  0.633E-01
  -5.680  0.116E+00  0.580E-01  0.580E-01
  -5.655  0.185E-01  0.926E-02  0.926E-02
  -5.630  0.205E-02  0.102E-02  0.102E-02
  -5.605  0.356E-01  0.178E-01  0.178E-01
  -5.580  0.132E+00  0.658E-01  0.658E-01
  -5.555  0.142E+00  0.709E-01  0.709E-01
  -5.530  0.546E-01  0.273E-01  0.273E-01
  -5.505  0.424E-01  0.212E-01  0.212E-01
  -5.480  0.142E+00  0.711E-01  0.711E-01
  -5.455  0.872E-01  0.436E-01  0.436E-01
  -5.430  0.101E-01  0.503E-02  0.503E-02
  -5.405  0.689E-02  0.344E-02  0.344E-02
  -5.380  0.856E-01  0.428E-01  0.428E-01
  -5.355  0.160E+00  0.798E-01  0.798E-01
  -5.330  0.444E-01  0.222E-01  0.222E-01
  -5.305  0.941E-02  0.470E-02  0.470E-02
  -5.280  0.473E-01  0.237E-01  0.237E-01
  -5.255  0.472E-01  0.236E-01  0.236E-01
  -5.230  0.322E-01  0.161E-01  0.161E-01
  -5.205  0.188E-01  0.939E-02  0.939E-02
  -5.180  0.629E-01  0.314E-01  0.314E-01
  -5.155  0.107E+00  0.535E-01  0.535E-01
  -5.130  0.440E-01  0.220E-01  0.220E-01
  -5.105  0.655E-01  0.327E-01  0.327E-01
  -5.080  0.753E-01  0.376E-01  0.376E-01
  -5.055  0.220E+00  0.110E+00  0.110E+00
  -5.030  0.186E+00  0.931E-01  0.931E-01
  -5.005  0.331E-01  0.166E-01  0.166E-01
  -4.980  0.298E-01  0.149E-01  0.149E-01
  -4.955  0.120E+00  0.598E-01  0.598E-01
  -4.930  0.128E+00  0.642E-01  0.642E-01
  -4.905  0.716E-01  0.358E-01  0.358E-01
  -4.880  0.870E-01  0.435E-01  0.435E-01
  -4.855  0.275E+00  0.138E+00  0.138E+00
  -4.830  0.246E+00  0.123E+00  0.123E+00
  -4.805  0.621E-01  0.310E-01  0.310E-01
  -4.780  0.115E+00  0.576E-01  0.576E-01
  -4.755  0.867E-01  0.433E-01  0.433E-01
  -4.730  0.679E-01  0.339E-01  0.339E-01
  -4.705  0.309E-01  0.154E-01  0.154E-01
  -4.680  0.710E-02  0.355E-02  0.355E-02
  -4.655  0.674E-01  0.337E-01  0.337E-01
  -4.630  0.200E+00  0.100E+00  0.100E+00
  -4.605  0.144E+00  0.718E-01  0.718E-01
  -4.580  0.613E-01  0.306E-01  0.306E-01
  -4.555  0.203E+00  0.102E+00  0.102E+00
  -4.530  0.185E+00  0.923E-01  0.923E-01
  -4.505  0.178E+00  0.890E-01  0.890E-01
  -4.480  0.113E+00  0.566E-01  0.566E-01
  -4.455  0.167E-01  0.833E-02  0.833E-02
  -4.430  0.142E-01  0.712E-02  0.712E-02
  -4.405  0.107E+00  0.535E-01  0.535E-01
  -4.380  0.154E+00  0.769E-01  0.769E-01
  -4.355  0.175E+00  0.875E-01  0.875E-01
  -4.330  0.222E+00  0.111E+00  0.111E+00
  -4.305  0.204E+00  0.102E+00  0.102E+00
  -4.280  0.591E-01  0.296E-01  0.296E-01
  -4.255  0.148E+00  0.739E-01  0.739E-01
  -4.230  0.403E+00  0.201E+00  0.201E+00
  -4.205  0.245E+00  0.123E+00  0.123E+00
  -4.180  0.241E-01  0.120E-01  0.120E-01
  -4.155  0.345E-03  0.173E-03  0.173E-03
  -4.130  0.156E-05  0.779E-06  0.779E-06
  -4.105  0.227E-03  0.113E-03  0.113E-03
  -4.080  0.852E-02  0.426E-02  0.426E-02
  -4.055  0.667E-01  0.334E-01  0.334E-01
  -4.030  0.230E+00  0.115E+00  0.115E+00
  -4.005  0.231E+00  0.115E+00  0.115E+00
  -3.980  0.253E+00  0.126E+00  0.126E+00
  -3.955  0.351E+00  0.175E+00  0.175E+00
  -3.930  0.155E+00  0.777E-01  0.777E-01
  -3.905  0.721E-01  0.360E-01  0.360E-01
  -3.880  0.113E+00  0.567E-01  0.567E-01
  -3.855  0.146E+00  0.732E-01  0.732E-01
  -3.830  0.150E+00  0.752E-01  0.752E-01
  -3.805  0.148E+00  0.739E-01  0.739E-01
  -3.780  0.160E+00  0.798E-01  0.798E-01
  -3.755  0.125E+00  0.623E-01  0.623E-01
  -3.730  0.159E+00  0.795E-01  0.795E-01
  -3.705  0.247E+00  0.124E+00  0.124E+00
  -3.680  0.183E+00  0.914E-01  0.914E-01
  -3.655  0.161E+00  0.807E-01  0.807E-01
  -3.630  0.111E+00  0.554E-01  0.554E-01
  -3.605  0.174E+00  0.868E-01  0.868E-01
  -3.580  0.950E-01  0.475E-01  0.475E-01
  -3.555  0.439E-01  0.220E-01  0.220E-01
  -3.530  0.639E-01  0.319E-01  0.319E-01
  -3.505  0.104E+00  0.518E-01  0.518E-01
  -3.480  0.106E+00  0.530E-01  0.530E-01
  -3.455  0.414E-01  0.207E-01  0.207E-01
  -3.430  0.973E-01  0.486E-01  0.486E-01
  -3.405  0.239E+00  0.119E+00  0.119E+00
  -3.380  0.311E+00  0.155E+00  0.155E+00
  -3.355  0.254E+00  0.127E+00  0.127E+00
  -3.330  0.138E+00  0.690E-01  0.690E-01
  -3.305  0.122E+00  0.610E-01  0.610E-01
  -3.280  0.121E+00  0.604E-01  0.604E-01
  -3.255  0.232E+00  0.116E+00  0.116E+00
  -3.230  0.227E+00  0.114E+00  0.114E+00
  -3.205  0.882E-01  0.441E-01  0.441E-01
  -3.180  0.962E-02  0.481E-02  0.481E-02
  -3.155  0.324E-01  0.162E-01  0.162E-01
  -3.130  0.134E+00  0.668E-01  0.668E-01
  -3.105  0.120E+00  0.601E-01  0.601E-01
  -3.080  0.549E-01  0.275E-01  0.275E-01
  -3.055  0.762E-01  0.381E-01  0.381E-01
  -3.030  0.120E+00  0.601E-01  0.601E-01
  -3.005  0.855E-01  0.427E-01  0.427E-01
  -2.980  0.416E-01  0.208E-01  0.208E-01
  -2.955  0.938E-01  0.469E-01  0.469E-01
  -2.930  0.700E-01  0.350E-01  0.350E-01
  -2.905  0.534E-01  0.267E-01  0.267E-01
  -2.880  0.459E-01  0.229E-01  0.229E-01
  -2.855  0.220E+00  0.110E+00  0.110E+00
  -2.830  0.266E+00  0.133E+00  0.133E+00
  -2.805  0.236E+00  0.118E+00  0.118E+00
  -2.780  0.145E+00  0.727E-01  0.727E-01
  -2.755  0.186E-01  0.928E-02  0.928E-02
  -2.730  0.583E-01  0.292E-01  0.292E-01
  -2.705  0.114E+00  0.572E-01  0.572E-01
  -2.680  0.694E-01  0.347E-01  0.347E-01
  -2.655  0.498E-01  0.249E-01  0.249E-01
  -2.630  0.530E-01  0.265E-01  0.265E-01
  -2.605  0.729E-01  0.365E-01  0.365E-01
  -2.580  0.817E-01  0.408E-01  0.408E-01
  -2.555  0.221E+00  0.111E+00  0.111E+00
  -2.530  0.236E+00  0.118E+00  0.118E+00
  -2.505  0.133E+00  0.664E-01  0.664E-01
  -2.480  0.117E+00  0.586E-01  0.586E-01
  -2.455  0.972E-01  0.486E-01  0.486E-01
  -2.430  0.174E+00  0.871E-01  0.871E-01
  -2.405  0.185E+00  0.926E-01  0.926E-01
  -2.380  0.170E+00  0.848E-01  0.848E-01
  -2.355  0.831E-01  0.416E-01  0.416E-01
  -2.330  0.191E+00  0.957E-01  0.957E-01
  -2.305  0.160E+00  0.801E-01  0.801E-01
  -2.280  0.766E-01  0.383E-01  0.383E-01
  -2.255  0.957E-01  0.479E-01  0.479E-01
  -2.230  0.127E+00  0.633E-01  0.633E-01
  -2.205  0.352E-01  0.176E-01  0.176E-01
  -2.180  0.202E-01  0.101E-01  0.101E-01
  -2.155  0.168E+00  0.839E-01  0.839E-01
  -2.130  0.382E+00  0.191E+00  0.191E+00
  -2.105  0.237E+00  0.118E+00  0.118E+00
  -2.080  0.340E-01  0.170E-01  0.170E-01
  -2.055  0.429E-01  0.215E-01  0.215E-01
  -2.030  0.304E-01  0.152E-01  0.152E-01
  -2.005  0.294E-02  0.147E-02  0.147E-02
  -1.980  0.257E-03  0.128E-03  0.128E-03
  -1.955  0.301E-02  0.151E-02  0.151E-02
  -1.930  0.568E-02  0.284E-02  0.284E-02
  -1.905  0.650E-02  0.325E-02  0.325E-02
  -1.880  0.713E-01  0.356E-01  0.356E-01
  -1.855  0.149E+00  0.747E-01  0.747E-01
  -1.830  0.459E-01  0.230E-01  0.230E-01
  -1.805  0.247E-02  0.123E-02  0.123E-02
  -1.780  0.155E-01  0.774E-02  0.774E-02
  -1.755  0.832E-01  0.416E-01  0.416E-01
  -1.730  0.106E+00  0.532E-01  0.532E-01
  -1.705  0.166E+00  0.831E-01  0.831E-01
  -1.680  0.745E-01  0.373E-01  0.373E-01
  -1.655  0.476E-02  0.238E-02  0.238E-02
  -1.630  0.444E-04  0.222E-04  0.222E-04
  -1.605  0.314E-03  0.157E-03  0.157E-03
  -1.580  0.499E-02  0.249E-02  0.249E-02
  -1.555  0.147E-01  0.737E-02  0.737E-02
  -1.530  0.794E-01  0.397E-01  0.397E-01
  -1.505  0.197E+00  0.984E-01  0.984E-01
  -1.480  0.117E+00  0.586E-01  0.586E-01
  -1.455  0.122E+00  0.609E-01  0.609E-01
  -1.430  0.133E+00  0.667E-01  0.667E-01
  -1.405  0.119E+00  0.597E-01  0.597E-01
  -1.380  0.439E-01  0.220E-01  0.220E-01
  -1.355  0.699E-01  0.349E-01  0.349E-01
  -1.330  0.135E+00  0.675E-01  0.675E-01
  -1.305  0.103E+00  0.517E-01  0.517E-01
  -1.280  0.124E+00  0.621E-01  0.621E-01
  -1.255  0.138E+00  0.691E-01  0.691E-01
  -1.230  0.118E+00  0.590E-01  0.590E-01
  -1.205  0.105E+00  0.526E-01  0.526E-01
  -1.180  0.196E-01  0.981E-02  0.981E-02
  -1.155  0.101E-02  0.504E-03  0.504E-03
  -1.130  0.807E-02  0.404E-02  0.404E-02
  -1.105  0.233E-01  0.117E-01  0.117E-01
  -1.080  0.143E-01  0.715E-02  0.715E-02
  -1.055  0.547E-01  0.273E-01  0.273E-01
  -1.030  0.796E-01  0.398E-01  0.398E-01
  -1.005  0.545E-01  0.272E-01  0.272E-01
  -0.980  0.104E+00  0.521E-01  0.521E-01
  -0.955  0.128E+00  0.641E-01  0.641E-01
  -0.930  0.851E-01  0.425E-01  0.425E-01
  -0.905  0.426E-01  0.213E-01  0.213E-01
  -0.880  0.734E-01  0.367E-01  0.367E-01
  -0.855  0.943E-01  0.472E-01  0.472E-01
  -0.830  0.405E-01  0.202E-01  0.202E-01
  -0.805  0.765E-01  0.382E-01  0.382E-01
  -0.780  0.116E+00  0.579E-01  0.579E-01
  -0.755  0.820E-01  0.410E-01  0.410E-01
  -0.730  0.662E-01  0.331E-01  0.331E-01
  -0.705  0.191E-01  0.956E-02  0.956E-02
  -0.680  0.637E-01  0.318E-01  0.318E-01
  -0.655  0.146E+00  0.729E-01  0.729E-01
  -0.630  0.961E-01  0.480E-01  0.480E-01
  -0.605  0.644E-01  0.322E-01  0.322E-01
  -0.580  0.722E-01  0.361E-01  0.361E-01
  -0.555  0.277E-01  0.138E-01  0.138E-01
  -0.530  0.233E-01  0.116E-01  0.116E-01
  -0.505  0.107E+00  0.534E-01  0.534E-01
  -0.480  0.162E+00  0.811E-01  0.811E-01
  -0.455  0.131E+00  0.653E-01  0.653E-01
  -0.430  0.121E+00  0.606E-01  0.606E-01
  -0.405  0.753E-01  0.376E-01  0.376E-01
  -0.380  0.165E-01  0.824E-02  0.824E-02
  -0.355  0.181E-01  0.905E-02  0.905E-02
  -0.330  0.884E-01  0.442E-01  0.442E-01
  -0.305  0.111E+00  0.554E-01  0.554E-01
  -0.280  0.339E-01  0.170E-01  0.170E-01
  -0.255  0.593E-01  0.296E-01  0.296E-01
  -0.230  0.135E+00  0.677E-01  0.677E-01
  -0.205  0.948E-01  0.474E-01  0.474E-01
  -0.180  0.345E-01  0.172E-01  0.172E-01
  -0.155  0.744E-01  0.372E-01  0.372E-01
  -0.130  0.949E-01  0.475E-01  0.475E-01
  -0.105  0.925E-01  0.462E-01  0.462E-01
  -0.080  0.452E-01  0.226E-01  0.226E-01
  -0.055  0.138E-01  0.692E-02  0.692E-02
  -0.030  0.373E-01  0.186E-01  0.186E-01
  -0.005  0.603E-01  0.302E-01  0.302E-01
   0.020  0.772E-01  0.386E-01  0.386E-01
   0.045  0.127E+00  0.635E-01  0.635E-01
   0.070  0.992E-01  0.496E-01  0.496E-01
   0.095  0.107E+00  0.536E-01  0.536E-01
   0.120  0.686E-01  0.343E-01  0.343E-01
   0.145  0.822E-01  0.411E-01  0.411E-01
   0.170  0.734E-01  0.367E-01  0.367E-01
   0.195  0.502E-01  0.251E-01  0.251E-01
   0.220  0.220E-01  0.110E-01  0.110E-01
   0.245  0.658E-01  0.329E-01  0.329E-01
   0.270  0.957E-01  0.479E-01  0.479E-01
   0.295  0.310E-01  0.155E-01  0.155E-01
   0.320  0.351E-02  0.175E-02  0.175E-02
   0.345  0.186E-01  0.930E-02  0.930E-02
   0.370  0.888E-01  0.444E-01  0.444E-01
   0.395  0.699E-01  0.349E-01  0.349E-01
   0.420  0.614E-01  0.307E-01  0.307E-01
   0.445  0.131E+00  0.653E-01  0.653E-01
   0.470  0.865E-01  0.432E-01  0.432E-01
   0.495  0.201E-01  0.101E-01  0.101E-01
   0.520  0.450E-01  0.225E-01  0.225E-01
   0.545  0.624E-01  0.312E-01  0.312E-01
   0.570  0.356E-01  0.178E-01  0.178E-01
   0.595  0.117E-01  0.583E-02  0.583E-02
   0.620  0.442E-01  0.221E-01  0.221E-01
   0.645  0.473E-01  0.237E-01  0.237E-01
   0.670  0.674E-01  0.337E-01  0.337E-01
   0.695  0.928E-01  0.464E-01  0.464E-01
   0.720  0.100E+00  0.500E-01  0.500E-01
   0.745  0.903E-01  0.452E-01  0.452E-01
   0.770  0.456E-01  0.228E-01  0.228E-01
   0.795  0.756E-01  0.378E-01  0.378E-01
   0.820  0.691E-01  0.346E-01  0.346E-01
   0.845  0.230E-01  0.115E-01  0.115E-01
   0.870  0.204E-02  0.102E-02  0.102E-02
   0.895  0.229E-02  0.114E-02  0.114E-02
   0.920  0.314E-01  0.157E-01  0.157E-01
   0.945  0.120E+00  0.601E-01  0.601E-01
   0.970  0.131E+00  0.657E-01  0.657E-01
   0.995  0.824E-01  0.412E-01  0.412E-01
   1.020  0.106E+00  0.531E-01  0.531E-01
   1.045  0.832E-01  0.416E-01  0.416E-01
   1.070  0.204E-01  0.102E-01  0.102E-01
   1.095  0.364E-01  0.182E-01  0.182E-01
   1.120  0.666E-01  0.333E-01  0.333E-01
   1.145  0.203E-01  0.101E-01  0.101E-01
   1.170  0.247E-01  0.123E-01  0.123E-01
   1.195  0.637E-01  0.319E-01  0.319E-01
   1.220  0.438E-01  0.219E-01  0.219E-01
   1.245  0.525E-01  0.263E-01  0.263E-01
   1.270  0.963E-01  0.481E-01  0.481E-01
   1.295  0.135E+00  0.673E-01  0.673E-01
   1.320  0.702E-01  0.351E-01  0.351E-01
   1.345  0.658E-01  0.329E-01  0.329E-01
   1.370  0.351E-01  0.175E-01  0.175E-01
   1.395  0.272E-01  0.136E-01  0.136E-01
   1.420  0.278E-01  0.139E-01  0.139E-01
   1.445  0.198E-01  0.988E-02  0.988E-02
   1.470  0.381E-01  0.190E-01  0.190E-01
   1.495  0.449E-01  0.224E-01  0.224E-01
   1.520  0.344E-01  0.172E-01  0.172E-01
   1.545  0.200E-01  0.100E-01  0.100E-01
   1.570  0.495E-01  0.248E-01  0.248E-01
   1.595  0.427E-01  0.213E-01  0.213E-01
   1.620  0.390E-01  0.195E-01  0.195E-01
   1.645  0.538E-01  0.269E-01  0.269E-01
   1.670  0.567E-01  0.283E-01  0.283E-01
   1.695  0.388E-01  0.194E-01  0.194E-01
   1.720  0.210E-01  0.105E-01  0.105E-01
   1.745  0.437E-02  0.218E-02  0.218E-02
   1.770  0.224E-02  0.112E-02  0.112E-02
   1.795  0.643E-02  0.322E-02  0.322E-02
   1.820  0.372E-01  0.186E-01  0.186E-01
   1.845  0.402E-01  0.201E-01  0.201E-01
   1.870  0.111E-01  0.557E-02  0.557E-02
   1.895  0.395E-01  0.198E-01  0.198E-01
   1.920  0.925E-01  0.462E-01  0.462E-01
   1.945  0.122E+00  0.610E-01  0.610E-01
   1.970  0.951E-01  0.476E-01  0.476E-01
   1.995  0.409E-01  0.205E-01  0.205E-01
   2.020  0.275E-01  0.137E-01  0.137E-01
   2.045  0.201E-01  0.101E-01  0.101E-01
   2.070  0.196E-01  0.979E-02  0.979E-02
   2.095  0.539E-02  0.270E-02  0.270E-02
   2.120  0.493E-03  0.246E-03  0.246E-03
   2.145  0.826E-03  0.413E-03  0.413E-03
   2.170  0.363E-02  0.181E-02  0.181E-02
   2.195  0.203E-01  0.102E-01  0.102E-01
   2.220  0.688E-01  0.344E-01  0.344E-01
   2.245  0.700E-01  0.350E-01  0.350E-01
   2.270  0.661E-01  0.331E-01  0.331E-01
   2.295  0.485E-01  0.242E-01  0.242E-01
   2.320  0.586E-01  0.293E-01  0.293E-01
   2.345  0.423E-01  0.212E-01  0.212E-01
   2.370  0.930E-02  0.465E-02  0.465E-02
   2.395  0.126E-01  0.628E-02  0.628E-02
   2.420  0.198E-01  0.988E-02  0.988E-02
   2.445  0.912E-02  0.456E-02  0.456E-02
   2.470  0.246E-01  0.123E-01  0.123E-01
   2.495  0.383E-01  0.191E-01  0.191E-01
   2.520  0.370E-01  0.185E-01  0.185E-01
   2.545  0.278E-01  0.139E-01  0.139E-01
   2.570  0.164E-01  0.819E-02  0.819E-02
   2.595  0.258E-01  0.129E-01  0.129E-01
   2.620  0.938E-02  0.469E-02  0.469E-02
   2.645  0.880E-02  0.440E-02  0.440E-02
   2.670  0.340E-01  0.170E-01  0.170E-01
   2.695  0.236E-01  0.118E-01  0.118E-01
   2.720  0.404E-02  0.202E-02  0.202E-02
   2.745  0.561E-02  0.281E-02  0.281E-02
   2.770  0.837E-02  0.418E-02  0.418E-02
   2.795  0.128E-01  0.638E-02  0.638E-02
   2.820  0.330E-01  0.165E-01  0.165E-01
   2.845  0.340E-01  0.170E-01  0.170E-01
   2.870  0.313E-01  0.156E-01  0.156E-01
   2.895  0.488E-01  0.244E-01  0.244E-01
   2.920  0.369E-01  0.184E-01  0.184E-01
   2.945  0.330E-01  0.165E-01  0.165E-01
   2.970  0.243E-01  0.122E-01  0.122E-01
   2.995  0.201E-01  0.101E-01  0.101E-01
   3.020  0.100E-01  0.502E-02  0.502E-02
   3.045  0.671E-02  0.336E-02  0.336E-02
   3.070  0.232E-01  0.116E-01  0.116E-01
   3.095  0.219E-01  0.109E-01  0.109E-01
   3.120  0.204E-01  0.102E-01  0.102E-01
   3.145  0.111E-01  0.554E-02  0.554E-02
   3.170  0.484E-02  0.242E-02  0.242E-02
   3.195  0.285E-02  0.143E-02  0.143E-02
   3.220  0.890E-02  0.445E-02  0.445E-02
   3.245  0.101E-01  0.504E-02  0.504E-02
   3.270  0.129E-01  0.645E-02  0.645E-02
   3.295  0.157E-01  0.787E-02  0.787E-02
   3.320  0.434E-02  0.217E-02  0.217E-02
   3.345  0.972E-03  0.486E-03  0.486E-03
   3.370  0.974E-03  0.487E-03  0.487E-03
   3.395  0.177E-03  0.886E-04  0.886E-04
   3.420  0.356E-04  0.178E-04  0.178E-04
   3.445  0.684E-03  0.342E-03  0.342E-03
   3.470  0.921E-02  0.461E-02  0.461E-02
   3.495  0.203E-01  0.102E-01  0.102E-01
   3.520  0.225E-01  0.112E-01  0.112E-01
   3.545  0.247E-01  0.123E-01  0.123E-01
   3.570  0.123E-01  0.615E-02  0.615E-02
   3.595  0.146E-01  0.730E-02  0.730E-02
   3.620  0.852E-02  0.426E-02  0.426E-02
   3.645  0.209E-02  0.104E-02  0.104E-02
   3.670  0.236E-02  0.118E-02  0.118E-02
   3.695  0.148E-01  0.740E-02  0.740E-02
   3.720  0.203E-01  0.102E-01  0.102E-01
   3.745  0.154E-01  0.772E-02  0.772E-02
   3.770  0.145E-01  0.727E-02  0.727E-02
   3.795  0.975E-02  0.487E-02  0.487E-02
   3.820  0.502E-02  0.251E-02  0.251E-02
   3.845  0.536E-02  0.268E-02  0.268E-02
   3.870  0.126E-02  0.631E-03  0.631E-03
   3.895  0.646E-03  0.323E-03  0.323E-03
   3.920  0.109E-02  0.543E-03  0.543E-03
   3.945  0.240E-02  0.120E-02  0.120E-02
   3.970  0.286E-02  0.143E-02  0.143E-02
   3.995  0.364E-02  0.182E-02  0.182E-02
   4.020  0.278E-02  0.139E-02  0.139E-02
   4.045  0.405E-02  0.202E-02  0.202E-02
   4.070  0.128E-02  0.642E-03  0.642E-03
   4.095  0.558E-04  0.279E-04  0.279E-04
   4.120  0.917E-05  0.458E-05  0.458E-05
   4.145  0.284E-03  0.142E-03  0.142E-03
   4.170  0.158E-02  0.788E-03  0.788E-03
   4.195  0.410E-02  0.205E-02  0.205E-02
   4.220  0.502E-02  0.251E-02  0.251E-02
   4.245  0.620E-02  0.310E-02  0.310E-02
   4.270  0.520E-02  0.260E-02  0.260E-02
   4.295  0.809E-03  0.405E-03  0.405E-03
   4.320  0.128E-02  0.639E-03  0.639E-03
   4.345  0.330E-02  0.165E-02  0.165E-02
   4.370  0.132E-02  0.658E-03  0.658E-03
   4.395  0.844E-04  0.422E-04  0.422E-04
   4.420  0.558E-03  0.279E-03  0.279E-03
   4.445  0.425E-02  0.213E-02  0.213E-02
   4.470  0.584E-02  0.292E-02  0.292E-02
   4.495  0.169E-02  0.845E-03  0.845E-03
   4.520  0.844E-03  0.422E-03  0.422E-03
   4.545  0.446E-03  0.223E-03  0.223E-03
   4.570  0.351E-04  0.175E-04  0.175E-04
   4.595  0.375E-06  0.188E-06  0.188E-06
   4.620  0.240E-06  0.120E-06  0.120E-06
   4.645  0.228E-04  0.114E-04  0.114E-04
   4.670  0.293E-03  0.146E-03  0.146E-03
   4.695  0.510E-03  0.255E-03  0.255E-03
   4.720  0.121E-03  0.603E-04  0.603E-04
   4.745  0.619E-05  0.309E-05  0.309E-05
   4.770  0.303E-05  0.151E-05  0.151E-05
   4.795  0.552E-06  0.276E-06  0.276E-06
   4.820  0.661E-07  0.331E-07  0.331E-07
   4.845  0.612E-07  0.306E-07  0.306E-07
   4.870  0.107E-06  0.537E-07  0.537E-07
   4.895  0.316E-07  0.158E-07  0.158E-07
   4.920  0.126E-08  0.629E-09  0.629E-09
   4.945  0.679E-11  0.340E-11  0.340E-11
   4.970  0.496E-14  0.248E-14  0.248E-14
   4.995  0.491E-18  0.245E-18  0.245E-18
   5.020  0.657E-23  0.328E-23  0.328E-23
   5.045  0.000E+00  0.000E+00  0.000E+00
   5.070  0.000E+00  0.000E+00  0.000E+00
   5.095  0.000E+00  0.000E+00  0.000E+00
   5.120  0.000E+00  0.000E+00  0.000E+00
   5.145  0.000E+00  0.000E+00  0.000E+00
   5.170  0.000E+00  0.000E+00  0.000E+00
   5.195  0.000E+00  0.000E+00  0.000E+00
   5.220  0.000E+00  0.000E+00  0.000E+00
   5.245  0.000E+00  0.000E+00  0.000E+00
   5.270  0.000E+00  0.000E+00  0.000E+00
   5.295  0.000E+00  0.000E+00  0.000E+00
   5.320  0.000E+00  0.000E+00  0.000E+00
   5.345  0.000E+00  0.000E+00  0.000E+00
   5.370  0.000E+00  0.000E+00  0.000E+00
   5.395  0.000E+00  0.000E+00  0.000E+00
   5.420  0.000E+00  0.000E+00  0.000E+00
   5.445  0.000E+00  0.000E+00  0.000E+00
   5.470  0.000E+00  0.000E+00  0.000E+00
   5.495  0.000E+00  0.000E+00  0.000E+00
   5.520  0.000E+00  0.000E+00  0.000E+00
   5.545  0.000E+00  0.000E+00  0.000E+00
   5.570  0.000E+00  0.000E+00  0.000E+00
   5.595  0.000E+00  0.000E+00  0.000E+00
   5.620  0.000E+00  0.000E+00  0.000E+00
   5.645  0.000E+00  0.000E+00  0.000E+00
   5.670  0.297E-19  0.148E-19  0.148E-19
   5.695  0.420E-14  0.210E-14  0.210E-14
   5.720  0.805E-10  0.402E-10  0.402E-10
   5.745  0.209E-06  0.104E-06  0.104E-06
   5.770  0.733E-04  0.366E-04  0.366E-04
   5.795  0.350E-02  0.175E-02  0.175E-02
   5.820  0.236E-01  0.118E-01  0.118E-01
   5.845  0.306E-01  0.153E-01  0.153E-01
   5.870  0.257E-01  0.129E-01  0.129E-01
   5.895  0.364E-01  0.182E-01  0.182E-01
   5.920  0.304E-01  0.152E-01  0.152E-01
   5.945  0.274E-01  0.137E-01  0.137E-01
   5.970  0.904E-02  0.452E-02  0.452E-02
   5.995  0.434E-03  0.217E-03  0.217E-03
   6.020  0.282E-05  0.141E-05  0.141E-05
   6.045  0.249E-08  0.124E-08  0.124E-08
   6.070  0.139E-07  0.693E-08  0.693E-08
   6.095  0.113E-04  0.567E-05  0.567E-05
   6.120  0.125E-02  0.627E-03  0.627E-03
   6.145  0.188E-01  0.939E-02  0.939E-02
   6.170  0.381E-01  0.191E-01  0.191E-01
   6.195  0.136E-01  0.678E-02  0.678E-02
   6.220  0.286E-01  0.143E-01  0.143E-01
   6.245  0.712E-01  0.356E-01  0.356E-01
   6.270  0.101E+00  0.507E-01  0.507E-01
   6.295  0.100E+00  0.501E-01  0.501E-01
   6.320  0.134E+00  0.672E-01  0.672E-01
   6.345  0.754E-01  0.377E-01  0.377E-01
   6.370  0.593E-01  0.296E-01  0.296E-01
   6.395  0.110E+00  0.552E-01  0.552E-01
   6.420  0.108E+00  0.542E-01  0.542E-01
   6.445  0.432E-01  0.216E-01  0.216E-01
   6.470  0.355E-02  0.178E-02  0.178E-02
   6.495  0.202E-01  0.101E-01  0.101E-01
   6.520  0.125E+00  0.626E-01  0.626E-01
   6.545  0.226E+00  0.113E+00  0.113E+00
   6.570  0.105E+00  0.525E-01  0.525E-01
   6.595  0.522E-01  0.261E-01  0.261E-01
   6.620  0.209E-01  0.104E-01  0.104E-01
   6.645  0.185E-01  0.926E-02  0.926E-02
   6.670  0.949E-01  0.474E-01  0.474E-01
   6.695  0.128E+00  0.642E-01  0.642E-01
   6.720  0.480E-01  0.240E-01  0.240E-01
   6.745  0.925E-01  0.462E-01  0.462E-01
   6.770  0.127E+00  0.635E-01  0.635E-01
   6.795  0.105E+00  0.525E-01  0.525E-01
   6.820  0.709E-01  0.355E-01  0.355E-01
   6.845  0.187E-01  0.935E-02  0.935E-02
   6.870  0.291E-01  0.146E-01  0.146E-01
   6.895  0.948E-01  0.474E-01  0.474E-01
   6.920  0.146E+00  0.730E-01  0.730E-01
   6.945  0.129E+00  0.645E-01  0.645E-01
   6.970  0.442E-01  0.221E-01  0.221E-01
   6.995  0.366E-01  0.183E-01  0.183E-01
   7.020  0.390E-01  0.195E-01  0.195E-01
   7.045  0.182E-01  0.909E-02  0.909E-02
   7.070  0.449E-01  0.225E-01  0.225E-01
   7.095  0.170E+00  0.849E-01  0.849E-01
   7.120  0.170E+00  0.848E-01  0.848E-01
   7.145  0.741E-01  0.371E-01  0.371E-01
   7.170  0.116E+00  0.578E-01  0.578E-01
   7.195  0.965E-01  0.483E-01  0.483E-01
   7.220  0.124E+00  0.622E-01  0.622E-01
   7.245  0.193E+00  0.967E-01  0.967E-01
   7.270  0.300E+00  0.150E+00  0.150E+00
   7.295  0.301E+00  0.150E+00  0.150E+00
   7.320  0.110E+00  0.550E-01  0.550E-01
   7.345  0.216E-01  0.108E-01  0.108E-01
   7.370  0.615E-01  0.307E-01  0.307E-01
   7.395  0.210E+00  0.105E+00  0.105E+00
   7.420  0.418E+00  0.209E+00  0.209E+00
   7.445  0.283E+00  0.141E+00  0.141E+00
   7.470  0.118E+00  0.591E-01  0.591E-01
   7.495  0.161E-01  0.805E-02  0.805E-02
   7.520  0.340E-01  0.170E-01  0.170E-01
   7.545  0.604E-01  0.302E-01  0.302E-01
   7.570  0.111E+00  0.554E-01  0.554E-01
   7.595  0.179E+00  0.893E-01  0.893E-01
   7.620  0.171E+00  0.856E-01  0.856E-01
   7.645  0.992E-01  0.496E-01  0.496E-01
   7.670  0.579E-01  0.289E-01  0.289E-01
   7.695  0.117E+00  0.587E-01  0.587E-01
   7.720  0.203E+00  0.102E+00  0.102E+00
   7.745  0.982E-01  0.491E-01  0.491E-01
   7.770  0.854E-01  0.427E-01  0.427E-01
   7.795  0.631E-01  0.315E-01  0.315E-01
   7.820  0.110E+00  0.550E-01  0.550E-01
   7.845  0.122E+00  0.608E-01  0.608E-01
   7.870  0.367E-01  0.184E-01  0.184E-01
   7.895  0.144E-01  0.718E-02  0.718E-02
   7.920  0.116E+00  0.579E-01  0.579E-01
   7.945  0.195E+00  0.976E-01  0.976E-01
   7.970  0.607E-01  0.304E-01  0.304E-01
   7.995  0.188E-01  0.941E-02  0.941E-02
   8.020  0.736E-02  0.368E-02  0.368E-02
   8.045  0.194E-01  0.969E-02  0.969E-02
   8.070  0.256E-01  0.128E-01  0.128E-01
   8.095  0.435E-01  0.217E-01  0.217E-01
   8.120  0.169E-01  0.843E-02  0.843E-02
   8.145  0.902E-03  0.451E-03  0.451E-03
   8.170  0.654E-05  0.327E-05  0.327E-05
   8.195  0.641E-08  0.321E-08  0.321E-08
