# E(eV)   ldos(E)   pdos(E)_1   pdos(E)_2   
  -7.905  0.210E-05  0.105E-05  0.105E-05
  -7.880  0.378E-03  0.189E-03  0.189E-03
  -7.855  0.122E-01  0.610E-02  0.610E-02
  -7.830  0.933E-01  0.466E-01  0.466E-01
  -7.805  0.215E+00  0.107E+00  0.107E+00
  -7.780  0.153E+00  0.764E-01  0.764E-01
  -7.755  0.767E-01  0.384E-01  0.384E-01
  -7.730  0.108E+00  0.541E-01  0.541E-01
  -7.705  0.101E+00  0.504E-01  0.504E-01
  -7.680  0.452E-01  0.226E-01  0.226E-01
  -7.655  0.273E-01  0.136E-01  0.136E-01
  -7.630  0.652E-01  0.326E-01  0.326E-01
  -7.605  0.735E-01  0.368E-01  0.368E-01
  -7.580  0.636E-01  0.318E-01  0.318E-01
  -7.555  0.274E-01  0.137E-01  0.137E-01
  -7.530  0.423E-01  0.211E-01  0.211E-01
  -7.505  0.620E-01  0.310E-01  0.310E-01
  -7.480  0.712E-01  0.356E-01  0.356E-01
  -7.455  0.105E+00  0.523E-01  0.523E-01
  -7.430  0.827E-01  0.413E-01  0.413E-01
  -7.405  0.427E-01  0.214E-01  0.214E-01
  -7.380  0.154E-01  0.771E-02  0.771E-02
  -7.355  0.359E-01  0.179E-01  0.179E-01
  -7.330  0.668E-01  0.334E-01  0.334E-01
  -7.305  0.402E-01  0.201E-01  0.201E-01
  -7.280  0.209E-01  0.105E-01  0.105E-01
  -7.255  0.409E-01  0.204E-01  0.204E-01
  -7.230  0.356E-01  0.178E-01  0.178E-01
  -7.205  0.114E-01  0.572E-02  0.572E-02
  -7.180  0.409E-02  0.205E-02  0.205E-02
  -7.155  0.365E-01  0.182E-01  0.182E-01
  -7.130  0.969E-01  0.484E-01  0.484E-01
  -7.105  0.563E-01  0.282E-01  0.282E-01
  -7.080  0.581E-02  0.291E-02  0.291E-02
  -7.055  0.352E-03  0.176E-03  0.176E-03
  -7.030  0.103E-01  0.514E-02  0.514E-02
  -7.005  0.665E-01  0.333E-01  0.333E-01
  -6.980  0.803E-01  0.402E-01  0.402E-01
  -6.955  0.363E-01  0.182E-01  0.182E-01
  -6.930  0.696E-01  0.348E-01  0.348E-01
  -6.905  0.871E-01  0.435E-01  0.435E-01
  -6.880  0.670E-01  0.335E-01  0.335E-01
  -6.855  0.206E-01  0.103E-01  0.103E-01
  -6.830  0.224E-01  0.112E-01  0.112E-01
  -6.805  0.223E-01  0.111E-01  0.111E-01
  -6.780  0.101E-01  0.507E-02  0.507E-02
  -6.755  0.341E-01  0.170E-01  0.170E-01
  -6.730  0.417E-01  0.208E-01  0.208E-01
  -6.705  0.427E-01  0.214E-01  0.214E-01
  -6.680  0.934E-01  0.467E-01  0.467E-01
  -6.655  0.397E-01  0.199E-01  0.199E-01
  -6.630  0.241E-01  0.120E-01  0.120E-01
  -6.605  0.342E-01  0.171E-01  0.171E-01
  -6.580  0.347E-01  0.174E-01  0.174E-01
  -6.555  0.301E-01  0.150E-01  0.150E-01
  -6.530  0.251E-01  0.125E-01  0.125E-01
  -6.505  0.395E-01  0.197E-01  0.197E-01
  -6.480  0.460E-01  0.230E-01  0.230E-01
  -6.455  0.598E-01  0.299E-01  0.299E-01
  -6.430  0.643E-01  0.322E-01  0.322E-01
  -6.405  0.745E-01  0.372E-01  0.372E-01
  -6.380  0.152E-01  0.758E-02  0.758E-02
  -6.355  0.662E-03  0.331E-03  0.331E-03
  -6.330  0.161E-02  0.805E-03  0.805E-03
  -6.305  0.269E-01  0.134E-01  0.134E-01
  -6.280  0.808E-01  0.404E-01  0.404E-01
  -6.255  0.433E-01  0.216E-01  0.216E-01
  -6.230  0.395E-02  0.198E-02  0.198E-02
  -6.205  0.169E-02  0.843E-03  0.843E-03
  -6.180  0.183E-01  0.917E-02  0.917E-02
  -6.155  0.722E-01  0.361E-01  0.361E-01
  -6.130  0.729E-01  0.364E-01  0.364E-01
  -6.105  0.503E-01  0.252E-01  0.252E-01
  -6.080  0.273E-01  0.137E-01  0.137E-01
  -6.055  0.433E-01  0.217E-01  0.217E-01
  -6.030  0.242E-01  0.121E-01  0.121E-01
  -6.005  0.346E-01  0.173E-01  0.173E-01
  -5.980  0.510E-01  0.255E-01  0.255E-01
  -5.955  0.233E-01  0.117E-01  0.117E-01
  -5.930  0.451E-02  0.226E-02  0.226E-02
  -5.905  0.891E-02  0.446E-02  0.446E-02
  -5.880  0.503E-01  0.251E-01  0.251E-01
  -5.855  0.107E+00  0.534E-01  0.534E-01
  -5.830  0.641E-01  0.320E-01  0.320E-01
  -5.805  0.782E-01  0.391E-01  0.391E-01
  -5.780  0.136E+00  0.682E-01  0.682E-01
  -5.755  0.528E-01  0.264E-01  0.264E-01
  -5.730  0.132E-01  0.658E-02  0.658E-02
  -5.705  0.509E-01  0.254E-01  0.254E-01
  -5.680  0.452E-01  0.226E-01  0.226E-01
  -5.655  0.699E-02  0.349E-02  0.349E-02
  -5.630  0.111E-02  0.555E-03  0.555E-03
  -5.605  0.173E-01  0.864E-02  0.864E-02
  -5.580  0.531E-01  0.266E-01  0.266E-01
  -5.555  0.572E-01  0.286E-01  0.286E-01
  -5.530  0.238E-01  0.119E-01  0.119E-01
  -5.505  0.251E-01  0.126E-01  0.126E-01
  -5.480  0.786E-01  0.393E-01  0.393E-01
  -5.455  0.423E-01  0.211E-01  0.211E-01
  -5.430  0.428E-02  0.214E-02  0.214E-02
  -5.405  0.254E-02  0.127E-02  0.127E-02
  -5.380  0.316E-01  0.158E-01  0.158E-01
  -5.355  0.592E-01  0.296E-01  0.296E-01
  -5.330  0.166E-01  0.830E-02  0.830E-02
  -5.305  0.433E-02  0.216E-02  0.216E-02
  -5.280  0.183E-01  0.917E-02  0.917E-02
  -5.255  0.152E-01  0.761E-02  0.761E-02
  -5.230  0.117E-01  0.583E-02  0.583E-02
  -5.205  0.778E-02  0.389E-02  0.389E-02
  -5.180  0.262E-01  0.131E-01  0.131E-01
  -5.155  0.365E-01  0.182E-01  0.182E-01
  -5.130  0.239E-01  0.120E-01  0.120E-01
  -5.105  0.570E-01  0.285E-01  0.285E-01
  -5.080  0.444E-01  0.222E-01  0.222E-01
  -5.055  0.871E-01  0.435E-01  0.435E-01
  -5.030  0.698E-01  0.349E-01  0.349E-01
  -5.005  0.122E-01  0.610E-02  0.610E-02
  -4.980  0.106E-01  0.531E-02  0.531E-02
  -4.955  0.436E-01  0.218E-01  0.218E-01
  -4.930  0.476E-01  0.238E-01  0.238E-01
  -4.905  0.256E-01  0.128E-01  0.128E-01
  -4.880  0.352E-01  0.176E-01  0.176E-01
  -4.855  0.106E+00  0.532E-01  0.532E-01
  -4.830  0.821E-01  0.411E-01  0.411E-01
  -4.805  0.212E-01  0.106E-01  0.106E-01
  -4.780  0.505E-01  0.252E-01  0.252E-01
  -4.755  0.565E-01  0.282E-01  0.282E-01
  -4.730  0.352E-01  0.176E-01  0.176E-01
  -4.705  0.114E-01  0.571E-02  0.571E-02
  -4.680  0.135E-02  0.676E-03  0.676E-03
  -4.655  0.976E-02  0.488E-02  0.488E-02
  -4.630  0.418E-01  0.209E-01  0.209E-01
  -4.605  0.393E-01  0.197E-01  0.197E-01
  -4.580  0.138E-01  0.690E-02  0.690E-02
  -4.555  0.411E-01  0.205E-01  0.205E-01
  -4.530  0.450E-01  0.225E-01  0.225E-01
  -4.505  0.502E-01  0.251E-01  0.251E-01
  -4.480  0.255E-01  0.127E-01  0.127E-01
  -4.455  0.304E-02  0.152E-02  0.152E-02
  -4.430  0.336E-02  0.168E-02  0.168E-02
  -4.405  0.260E-01  0.130E-01  0.130E-01
  -4.380  0.427E-01  0.213E-01  0.213E-01
  -4.355  0.491E-01  0.246E-01  0.246E-01
  -4.330  0.568E-01  0.284E-01  0.284E-01
  -4.305  0.566E-01  0.283E-01  0.283E-01
  -4.280  0.167E-01  0.833E-02  0.833E-02
  -4.255  0.374E-01  0.187E-01  0.187E-01
  -4.230  0.982E-01  0.491E-01  0.491E-01
  -4.205  0.614E-01  0.307E-01  0.307E-01
  -4.180  0.616E-02  0.308E-02  0.308E-02
  -4.155  0.890E-04  0.445E-04  0.445E-04
  -4.130  0.519E-06  0.259E-06  0.259E-06
  -4.105  0.890E-04  0.445E-04  0.445E-04
  -4.080  0.328E-02  0.164E-02  0.164E-02
  -4.055  0.227E-01  0.113E-01  0.113E-01
  -4.030  0.647E-01  0.324E-01  0.324E-01
  -4.005  0.627E-01  0.314E-01  0.314E-01
  -3.980  0.807E-01  0.404E-01  0.404E-01
  -3.955  0.132E+00  0.662E-01  0.662E-01
  -3.930  0.733E-01  0.366E-01  0.366E-01
  -3.905  0.310E-01  0.155E-01  0.155E-01
  -3.880  0.386E-01  0.193E-01  0.193E-01
  -3.855  0.464E-01  0.232E-01  0.232E-01
  -3.830  0.507E-01  0.253E-01  0.253E-01
  -3.805  0.538E-01  0.269E-01  0.269E-01
  -3.780  0.645E-01  0.322E-01  0.322E-01
  -3.755  0.420E-01  0.210E-01  0.210E-01
  -3.730  0.594E-01  0.297E-01  0.297E-01
  -3.705  0.101E+00  0.503E-01  0.503E-01
  -3.680  0.681E-01  0.340E-01  0.340E-01
  -3.655  0.750E-01  0.375E-01  0.375E-01
  -3.630  0.475E-01  0.237E-01  0.237E-01
  -3.605  0.499E-01  0.249E-01  0.249E-01
  -3.580  0.250E-01  0.125E-01  0.125E-01
  -3.555  0.154E-01  0.770E-02  0.770E-02
  -3.530  0.266E-01  0.133E-01  0.133E-01
  -3.505  0.526E-01  0.263E-01  0.263E-01
  -3.480  0.597E-01  0.299E-01  0.299E-01
  -3.455  0.186E-01  0.931E-02  0.931E-02
  -3.430  0.336E-01  0.168E-01  0.168E-01
  -3.405  0.945E-01  0.473E-01  0.473E-01
  -3.380  0.131E+00  0.655E-01  0.655E-01
  -3.355  0.115E+00  0.577E-01  0.577E-01
  -3.330  0.642E-01  0.321E-01  0.321E-01
  -3.305  0.454E-01  0.227E-01  0.227E-01
  -3.280  0.513E-01  0.257E-01  0.257E-01
  -3.255  0.109E+00  0.545E-01  0.545E-01
  -3.230  0.845E-01  0.423E-01  0.423E-01
  -3.205  0.245E-01  0.122E-01  0.122E-01
  -3.180  0.273E-02  0.136E-02  0.136E-02
  -3.155  0.122E-01  0.610E-02  0.610E-02
  -3.130  0.478E-01  0.239E-01  0.239E-01
  -3.105  0.416E-01  0.208E-01  0.208E-01
  -3.080  0.223E-01  0.111E-01  0.111E-01
  -3.055  0.357E-01  0.179E-01  0.179E-01
  -3.030  0.608E-01  0.304E-01  0.304E-01
  -3.005  0.411E-01  0.205E-01  0.205E-01
  -2.980  0.198E-01  0.989E-02  0.989E-02
  -2.955  0.467E-01  0.233E-01  0.233E-01
  -2.930  0.330E-01  0.165E-01  0.165E-01
  -2.905  0.235E-01  0.117E-01  0.117E-01
  -2.880  0.216E-01  0.108E-01  0.108E-01
  -2.855  0.103E+00  0.516E-01  0.516E-01
  -2.830  0.120E+00  0.601E-01  0.601E-01
  -2.805  0.908E-01  0.454E-01  0.454E-01
  -2.780  0.529E-01  0.265E-01  0.265E-01
  -2.755  0.703E-02  0.351E-02  0.351E-02
  -2.730  0.235E-01  0.117E-01  0.117E-01
  -2.705  0.406E-01  0.203E-01  0.203E-01
  -2.680  0.243E-01  0.122E-01  0.122E-01
  -2.655  0.190E-01  0.952E-02  0.952E-02
  -2.630  0.243E-01  0.122E-01  0.122E-01
  -2.605  0.344E-01  0.172E-01  0.172E-01
  -2.580  0.375E-01  0.187E-01  0.187E-01
  -2.555  0.855E-01  0.427E-01  0.427E-01
  -2.530  0.780E-01  0.390E-01  0.390E-01
  -2.505  0.423E-01  0.212E-01  0.212E-01
  -2.480  0.389E-01  0.195E-01  0.195E-01
  -2.455  0.403E-01  0.201E-01  0.201E-01
  -2.430  0.785E-01  0.393E-01  0.393E-01
  -2.405  0.871E-01  0.436E-01  0.436E-01
  -2.380  0.774E-01  0.387E-01  0.387E-01
  -2.355  0.364E-01  0.182E-01  0.182E-01
  -2.330  0.813E-01  0.407E-01  0.407E-01
  -2.305  0.661E-01  0.330E-01  0.330E-01
  -2.280  0.285E-01  0.142E-01  0.142E-01
  -2.255  0.419E-01  0.210E-01  0.210E-01
  -2.230  0.617E-01  0.309E-01  0.309E-01
  -2.205  0.178E-01  0.892E-02  0.892E-02
  -2.180  0.956E-02  0.478E-02  0.478E-02
  -2.155  0.762E-01  0.381E-01  0.381E-01
  -2.130  0.167E+00  0.834E-01  0.834E-01
  -2.105  0.101E+00  0.505E-01  0.505E-01
  -2.080  0.148E-01  0.740E-02  0.740E-02
  -2.055  0.209E-01  0.105E-01  0.105E-01
  -2.030  0.148E-01  0.741E-02  0.741E-02
  -2.005  0.145E-02  0.724E-03  0.724E-03
  -1.980  0.143E-02  0.716E-03  0.716E-03
  -1.955  0.195E-01  0.974E-02  0.974E-02
  -1.930  0.365E-01  0.182E-01  0.182E-01
  -1.905  0.151E-01  0.753E-02  0.753E-02
  -1.880  0.594E-01  0.297E-01  0.297E-01
  -1.855  0.953E-01  0.476E-01  0.476E-01
  -1.830  0.281E-01  0.141E-01  0.141E-01
  -1.805  0.189E-01  0.947E-02  0.947E-02
  -1.780  0.222E-01  0.111E-01  0.111E-01
  -1.755  0.702E-01  0.351E-01  0.351E-01
  -1.730  0.104E+00  0.520E-01  0.520E-01
  -1.705  0.108E+00  0.542E-01  0.542E-01
  -1.680  0.414E-01  0.207E-01  0.207E-01
  -1.655  0.247E-02  0.123E-02  0.123E-02
  -1.630  0.247E-04  0.123E-04  0.123E-04
  -1.605  0.475E-03  0.237E-03  0.237E-03
  -1.580  0.809E-02  0.404E-02  0.404E-02
  -1.555  0.318E-01  0.159E-01  0.159E-01
  -1.530  0.822E-01  0.411E-01  0.411E-01
  -1.505  0.108E+00  0.541E-01  0.541E-01
  -1.480  0.542E-01  0.271E-01  0.271E-01
  -1.455  0.672E-01  0.336E-01  0.336E-01
  -1.430  0.123E+00  0.616E-01  0.616E-01
  -1.405  0.144E+00  0.720E-01  0.720E-01
  -1.380  0.105E+00  0.525E-01  0.525E-01
  -1.355  0.103E+00  0.516E-01  0.516E-01
  -1.330  0.114E+00  0.569E-01  0.569E-01
  -1.305  0.862E-01  0.431E-01  0.431E-01
  -1.280  0.718E-01  0.359E-01  0.359E-01
  -1.255  0.657E-01  0.328E-01  0.328E-01
  -1.230  0.608E-01  0.304E-01  0.304E-01
  -1.205  0.548E-01  0.274E-01  0.274E-01
  -1.180  0.102E-01  0.511E-02  0.511E-02
  -1.155  0.840E-03  0.420E-03  0.420E-03
  -1.130  0.109E-01  0.545E-02  0.545E-02
  -1.105  0.315E-01  0.157E-01  0.157E-01
  -1.080  0.153E-01  0.766E-02  0.766E-02
  -1.055  0.325E-01  0.163E-01  0.163E-01
  -1.030  0.472E-01  0.236E-01  0.236E-01
  -1.005  0.467E-01  0.233E-01  0.233E-01
  -0.980  0.158E+00  0.790E-01  0.790E-01
  -0.955  0.205E+00  0.102E+00  0.102E+00
  -0.930  0.132E+00  0.659E-01  0.659E-01
  -0.905  0.840E-01  0.420E-01  0.420E-01
  -0.880  0.624E-01  0.312E-01  0.312E-01
  -0.855  0.101E+00  0.504E-01  0.504E-01
  -0.830  0.107E+00  0.534E-01  0.534E-01
  -0.805  0.135E+00  0.674E-01  0.674E-01
  -0.780  0.108E+00  0.538E-01  0.538E-01
  -0.755  0.814E-01  0.407E-01  0.407E-01
  -0.730  0.813E-01  0.406E-01  0.406E-01
  -0.705  0.261E-01  0.131E-01  0.131E-01
  -0.680  0.595E-01  0.297E-01  0.297E-01
  -0.655  0.131E+00  0.653E-01  0.653E-01
  -0.630  0.102E+00  0.512E-01  0.512E-01
  -0.605  0.812E-01  0.406E-01  0.406E-01
  -0.580  0.706E-01  0.353E-01  0.353E-01
  -0.555  0.449E-01  0.225E-01  0.225E-01
  -0.530  0.834E-01  0.417E-01  0.417E-01
  -0.505  0.124E+00  0.620E-01  0.620E-01
  -0.480  0.150E+00  0.751E-01  0.751E-01
  -0.455  0.996E-01  0.498E-01  0.498E-01
  -0.430  0.133E+00  0.663E-01  0.663E-01
  -0.405  0.160E+00  0.801E-01  0.801E-01
  -0.380  0.536E-01  0.268E-01  0.268E-01
  -0.355  0.413E-01  0.207E-01  0.207E-01
  -0.330  0.111E+00  0.556E-01  0.556E-01
  -0.305  0.127E+00  0.633E-01  0.633E-01
  -0.280  0.381E-01  0.191E-01  0.191E-01
  -0.255  0.380E-01  0.190E-01  0.190E-01
  -0.230  0.883E-01  0.442E-01  0.442E-01
  -0.205  0.111E+00  0.553E-01  0.553E-01
  -0.180  0.826E-01  0.413E-01  0.413E-01
  -0.155  0.949E-01  0.475E-01  0.475E-01
  -0.130  0.108E+00  0.540E-01  0.540E-01
  -0.105  0.929E-01  0.464E-01  0.464E-01
  -0.080  0.345E-01  0.173E-01  0.173E-01
  -0.055  0.135E-01  0.673E-02  0.673E-02
  -0.030  0.453E-01  0.226E-01  0.226E-01
  -0.005  0.776E-01  0.388E-01  0.388E-01
   0.020  0.920E-01  0.460E-01  0.460E-01
   0.045  0.139E+00  0.697E-01  0.697E-01
   0.070  0.134E+00  0.670E-01  0.670E-01
   0.095  0.192E+00  0.961E-01  0.961E-01
   0.120  0.104E+00  0.521E-01  0.521E-01
   0.145  0.791E-01  0.395E-01  0.395E-01
   0.170  0.113E+00  0.564E-01  0.564E-01
   0.195  0.130E+00  0.650E-01  0.650E-01
   0.220  0.796E-01  0.398E-01  0.398E-01
   0.245  0.124E+00  0.618E-01  0.618E-01
   0.270  0.165E+00  0.823E-01  0.823E-01
   0.295  0.523E-01  0.262E-01  0.262E-01
   0.320  0.443E-02  0.221E-02  0.221E-02
   0.345  0.257E-01  0.128E-01  0.128E-01
   0.370  0.110E+00  0.549E-01  0.549E-01
   0.395  0.846E-01  0.423E-01  0.423E-01
   0.420  0.966E-01  0.483E-01  0.483E-01
   0.445  0.200E+00  0.998E-01  0.998E-01
   0.470  0.152E+00  0.761E-01  0.761E-01
   0.495  0.748E-01  0.374E-01  0.374E-01
   0.520  0.113E+00  0.565E-01  0.565E-01
   0.545  0.122E+00  0.611E-01  0.611E-01
   0.570  0.544E-01  0.272E-01  0.272E-01
   0.595  0.147E-01  0.734E-02  0.734E-02
   0.620  0.652E-01  0.326E-01  0.326E-01
   0.645  0.148E+00  0.742E-01  0.742E-01
   0.670  0.191E+00  0.953E-01  0.953E-01
   0.695  0.171E+00  0.854E-01  0.854E-01
   0.720  0.200E+00  0.100E+00  0.100E+00
   0.745  0.159E+00  0.797E-01  0.797E-01
   0.770  0.117E+00  0.583E-01  0.583E-01
   0.795  0.171E+00  0.854E-01  0.854E-01
   0.820  0.157E+00  0.785E-01  0.785E-01
   0.845  0.651E-01  0.326E-01  0.326E-01
   0.870  0.358E-01  0.179E-01  0.179E-01
   0.895  0.355E-01  0.177E-01  0.177E-01
   0.920  0.785E-01  0.392E-01  0.392E-01
   0.945  0.240E+00  0.120E+00  0.120E+00
   0.970  0.232E+00  0.116E+00  0.116E+00
   0.995  0.217E+00  0.108E+00  0.108E+00
   1.020  0.237E+00  0.118E+00  0.118E+00
   1.045  0.177E+00  0.883E-01  0.883E-01
   1.070  0.914E-01  0.457E-01  0.457E-01
   1.095  0.860E-01  0.430E-01  0.430E-01
   1.120  0.107E+00  0.537E-01  0.537E-01
   1.145  0.132E+00  0.659E-01  0.659E-01
   1.170  0.232E+00  0.116E+00  0.116E+00
   1.195  0.189E+00  0.945E-01  0.945E-01
   1.220  0.147E+00  0.734E-01  0.734E-01
   1.245  0.197E+00  0.987E-01  0.987E-01
   1.270  0.331E+00  0.166E+00  0.166E+00
   1.295  0.349E+00  0.174E+00  0.174E+00
   1.320  0.187E+00  0.935E-01  0.935E-01
   1.345  0.119E+00  0.593E-01  0.593E-01
   1.370  0.993E-01  0.496E-01  0.496E-01
   1.395  0.104E+00  0.518E-01  0.518E-01
   1.420  0.989E-01  0.494E-01  0.494E-01
   1.445  0.144E+00  0.720E-01  0.720E-01
   1.470  0.200E+00  0.100E+00  0.100E+00
   1.495  0.104E+00  0.522E-01  0.522E-01
   1.520  0.668E-01  0.334E-01  0.334E-01
   1.545  0.968E-01  0.484E-01  0.484E-01
   1.570  0.146E+00  0.730E-01  0.730E-01
   1.595  0.124E+00  0.621E-01  0.621E-01
   1.620  0.117E+00  0.584E-01  0.584E-01
   1.645  0.210E+00  0.105E+00  0.105E+00
   1.670  0.203E+00  0.101E+00  0.101E+00
   1.695  0.250E+00  0.125E+00  0.125E+00
   1.720  0.161E+00  0.804E-01  0.804E-01
   1.745  0.608E-01  0.304E-01  0.304E-01
   1.770  0.905E-01  0.453E-01  0.453E-01
   1.795  0.156E+00  0.780E-01  0.780E-01
   1.820  0.202E+00  0.101E+00  0.101E+00
   1.845  0.169E+00  0.846E-01  0.846E-01
   1.870  0.877E-01  0.438E-01  0.438E-01
   1.895  0.148E+00  0.739E-01  0.739E-01
   1.920  0.204E+00  0.102E+00  0.102E+00
   1.945  0.250E+00  0.125E+00  0.125E+00
   1.970  0.201E+00  0.101E+00  0.101E+00
   1.995  0.126E+00  0.630E-01  0.630E-01
   2.020  0.152E+00  0.759E-01  0.759E-01
   2.045  0.220E+00  0.110E+00  0.110E+00
   2.070  0.219E+00  0.110E+00  0.110E+00
   2.095  0.621E-01  0.310E-01  0.310E-01
   2.120  0.629E-02  0.315E-02  0.315E-02
   2.145  0.232E-01  0.116E-01  0.116E-01
   2.170  0.123E+00  0.613E-01  0.613E-01
   2.195  0.193E+00  0.964E-01  0.964E-01
   2.220  0.248E+00  0.124E+00  0.124E+00
   2.245  0.308E+00  0.154E+00  0.154E+00
   2.270  0.190E+00  0.949E-01  0.949E-01
   2.295  0.178E+00  0.888E-01  0.888E-01
   2.320  0.232E+00  0.116E+00  0.116E+00
   2.345  0.168E+00  0.841E-01  0.841E-01
   2.370  0.103E+00  0.514E-01  0.514E-01
   2.395  0.106E+00  0.528E-01  0.528E-01
   2.420  0.218E+00  0.109E+00  0.109E+00
   2.445  0.205E+00  0.102E+00  0.102E+00
   2.470  0.252E+00  0.126E+00  0.126E+00
   2.495  0.266E+00  0.133E+00  0.133E+00
   2.520  0.165E+00  0.826E-01  0.826E-01
   2.545  0.166E+00  0.831E-01  0.831E-01
   2.570  0.107E+00  0.534E-01  0.534E-01
   2.595  0.907E-01  0.453E-01  0.453E-01
   2.620  0.212E-01  0.106E-01  0.106E-01
   2.645  0.422E-01  0.211E-01  0.211E-01
   2.670  0.169E+00  0.847E-01  0.847E-01
   2.695  0.181E+00  0.904E-01  0.904E-01
   2.720  0.134E+00  0.669E-01  0.669E-01
   2.745  0.137E+00  0.684E-01  0.684E-01
   2.770  0.621E-01  0.310E-01  0.310E-01
   2.795  0.624E-01  0.312E-01  0.312E-01
   2.820  0.140E+00  0.698E-01  0.698E-01
   2.845  0.158E+00  0.789E-01  0.789E-01
   2.870  0.152E+00  0.760E-01  0.760E-01
   2.895  0.155E+00  0.774E-01  0.774E-01
   2.920  0.155E+00  0.774E-01  0.774E-01
   2.945  0.166E+00  0.831E-01  0.831E-01
   2.970  0.154E+00  0.770E-01  0.770E-01
   2.995  0.137E+00  0.684E-01  0.684E-01
   3.020  0.638E-01  0.319E-01  0.319E-01
   3.045  0.490E-01  0.245E-01  0.245E-01
   3.070  0.181E+00  0.906E-01  0.906E-01
   3.095  0.199E+00  0.996E-01  0.996E-01
   3.120  0.244E+00  0.122E+00  0.122E+00
   3.145  0.257E+00  0.128E+00  0.128E+00
   3.170  0.205E+00  0.103E+00  0.103E+00
   3.195  0.119E+00  0.595E-01  0.595E-01
   3.220  0.214E+00  0.107E+00  0.107E+00
   3.245  0.273E+00  0.136E+00  0.136E+00
   3.270  0.337E+00  0.168E+00  0.168E+00
   3.295  0.227E+00  0.113E+00  0.113E+00
   3.320  0.530E-01  0.265E-01  0.265E-01
   3.345  0.493E-01  0.246E-01  0.246E-01
   3.370  0.523E-01  0.262E-01  0.262E-01
   3.395  0.318E-01  0.159E-01  0.159E-01
   3.420  0.393E-01  0.197E-01  0.197E-01
   3.445  0.101E-01  0.507E-02  0.507E-02
   3.470  0.208E-01  0.104E-01  0.104E-01
   3.495  0.687E-01  0.343E-01  0.343E-01
   3.520  0.152E+00  0.762E-01  0.762E-01
   3.545  0.154E+00  0.770E-01  0.770E-01
   3.570  0.498E-01  0.249E-01  0.249E-01
   3.595  0.318E-01  0.159E-01  0.159E-01
   3.620  0.462E-01  0.231E-01  0.231E-01
   3.645  0.206E-01  0.103E-01  0.103E-01
   3.670  0.167E-01  0.835E-02  0.835E-02
   3.695  0.105E+00  0.524E-01  0.524E-01
   3.720  0.154E+00  0.768E-01  0.768E-01
   3.745  0.111E+00  0.553E-01  0.553E-01
   3.770  0.103E+00  0.514E-01  0.514E-01
   3.795  0.136E+00  0.682E-01  0.682E-01
   3.820  0.812E-01  0.406E-01  0.406E-01
   3.845  0.690E-01  0.345E-01  0.345E-01
   3.870  0.397E-01  0.199E-01  0.199E-01
   3.895  0.797E-01  0.399E-01  0.399E-01
   3.920  0.718E-01  0.359E-01  0.359E-01
   3.945  0.503E-01  0.252E-01  0.252E-01
   3.970  0.700E-01  0.350E-01  0.350E-01
   3.995  0.627E-01  0.314E-01  0.314E-01
   4.020  0.459E-01  0.229E-01  0.229E-01
   4.045  0.753E-01  0.376E-01  0.376E-01
   4.070  0.240E-01  0.120E-01  0.120E-01
   4.095  0.105E-02  0.523E-03  0.523E-03
   4.120  0.563E-03  0.282E-03  0.282E-03
   4.145  0.172E-01  0.859E-02  0.859E-02
   4.170  0.748E-01  0.374E-01  0.374E-01
   4.195  0.657E-01  0.328E-01  0.328E-01
   4.220  0.361E-01  0.180E-01  0.180E-01
   4.245  0.590E-01  0.295E-01  0.295E-01
   4.270  0.608E-01  0.304E-01  0.304E-01
   4.295  0.546E-01  0.273E-01  0.273E-01
   4.320  0.519E-01  0.259E-01  0.259E-01
   4.345  0.425E-01  0.213E-01  0.213E-01
   4.370  0.147E-01  0.733E-02  0.733E-02
   4.395  0.107E-02  0.536E-03  0.536E-03
   4.420  0.118E-01  0.589E-02  0.589E-02
   4.445  0.758E-01  0.379E-01  0.379E-01
   4.470  0.956E-01  0.478E-01  0.478E-01
   4.495  0.331E-01  0.165E-01  0.165E-01
   4.520  0.170E-01  0.852E-02  0.852E-02
   4.545  0.119E-01  0.597E-02  0.597E-02
   4.570  0.210E-02  0.105E-02  0.105E-02
   4.595  0.796E-04  0.398E-04  0.398E-04
   4.620  0.163E-04  0.814E-05  0.814E-05
   4.645  0.150E-02  0.748E-03  0.748E-03
   4.670  0.192E-01  0.960E-02  0.960E-02
   4.695  0.334E-01  0.167E-01  0.167E-01
   4.720  0.908E-02  0.454E-02  0.454E-02
   4.745  0.120E-01  0.599E-02  0.599E-02
   4.770  0.156E-01  0.782E-02  0.782E-02
   4.795  0.102E-01  0.512E-02  0.512E-02
   4.820  0.134E-01  0.669E-02  0.669E-02
   4.845  0.315E-02  0.157E-02  0.157E-02
   4.870  0.101E-03  0.504E-04  0.504E-04
   4.895  0.436E-06  0.218E-06  0.218E-06
   4.920  0.256E-09  0.128E-09  0.128E-09
   4.945  0.232E-13  0.116E-13  0.116E-13
   4.970  0.235E-17  0.117E-17  0.117E-17
   4.995  0.210E-21  0.105E-21  0.105E-21
   5.020  0.282E-26  0.141E-26  0.141E-26
   5.045  0.000E+00  0.000E+00  0.000E+00
   5.070  0.000E+00  0.000E+00  0.000E+00
   5.095  0.000E+00  0.000E+00  0.000E+00
   5.120  0.000E+00  0.000E+00  0.000E+00
   5.145  0.000E+00  0.000E+00  0.000E+00
   5.170  0.000E+00  0.000E+00  0.000E+00
   5.195  0.000E+00  0.000E+00  0.000E+00
   5.220  0.000E+00  0.000E+00  0.000E+00
   5.245  0.000E+00  0.000E+00  0.000E+00
   5.270  0.000E+00  0.000E+00  0.000E+00
   5.295  0.000E+00  0.000E+00  0.000E+00
   5.320  0.000E+00  0.000E+00  0.000E+00
   5.345  0.000E+00  0.000E+00  0.000E+00
   5.370  0.000E+00  0.000E+00  0.000E+00
   5.395  0.000E+00  0.000E+00  0.000E+00
   5.420  0.000E+00  0.000E+00  0.000E+00
   5.445  0.000E+00  0.000E+00  0.000E+00
   5.470  0.000E+00  0.000E+00  0.000E+00
   5.495  0.000E+00  0.000E+00  0.000E+00
   5.520  0.000E+00  0.000E+00  0.000E+00
   5.545  0.000E+00  0.000E+00  0.000E+00
   5.570  0.000E+00  0.000E+00  0.000E+00
   5.595  0.000E+00  0.000E+00  0.000E+00
   5.620  0.000E+00  0.000E+00  0.000E+00
   5.645  0.000E+00  0.000E+00  0.000E+00
   5.670  0.100E-19  0.502E-20  0.502E-20
   5.695  0.142E-14  0.711E-15  0.711E-15
   5.720  0.273E-10  0.136E-10  0.136E-10
   5.745  0.707E-07  0.354E-07  0.354E-07
   5.770  0.248E-04  0.124E-04  0.124E-04
   5.795  0.119E-02  0.593E-03  0.593E-03
   5.820  0.803E-02  0.402E-02  0.402E-02
   5.845  0.107E-01  0.533E-02  0.533E-02
   5.870  0.891E-02  0.445E-02  0.445E-02
   5.895  0.118E-01  0.592E-02  0.592E-02
   5.920  0.104E-01  0.521E-02  0.521E-02
   5.945  0.107E-01  0.534E-02  0.534E-02
   5.970  0.357E-02  0.179E-02  0.179E-02
   5.995  0.171E-03  0.857E-04  0.857E-04
   6.020  0.112E-05  0.558E-06  0.558E-06
   6.045  0.984E-09  0.492E-09  0.492E-09
   6.070  0.417E-08  0.208E-08  0.208E-08
   6.095  0.341E-05  0.170E-05  0.170E-05
   6.120  0.377E-03  0.188E-03  0.188E-03
   6.145  0.564E-02  0.282E-02  0.282E-02
   6.170  0.115E-01  0.573E-02  0.573E-02
   6.195  0.478E-02  0.239E-02  0.239E-02
   6.220  0.147E-01  0.734E-02  0.734E-02
   6.245  0.332E-01  0.166E-01  0.166E-01
   6.270  0.438E-01  0.219E-01  0.219E-01
   6.295  0.424E-01  0.212E-01  0.212E-01
   6.320  0.559E-01  0.280E-01  0.280E-01
   6.345  0.297E-01  0.149E-01  0.149E-01
   6.370  0.259E-01  0.130E-01  0.130E-01
   6.395  0.483E-01  0.242E-01  0.242E-01
   6.420  0.438E-01  0.219E-01  0.219E-01
   6.445  0.166E-01  0.831E-02  0.831E-02
   6.470  0.143E-02  0.715E-03  0.715E-03
   6.495  0.986E-02  0.493E-02  0.493E-02
   6.520  0.566E-01  0.283E-01  0.283E-01
   6.545  0.956E-01  0.478E-01  0.478E-01
   6.570  0.439E-01  0.219E-01  0.219E-01
   6.595  0.220E-01  0.110E-01  0.110E-01
   6.620  0.805E-02  0.402E-02  0.402E-02
   6.645  0.132E-01  0.660E-02  0.660E-02
   6.670  0.609E-01  0.305E-01  0.305E-01
   6.695  0.724E-01  0.362E-01  0.362E-01
   6.720  0.244E-01  0.122E-01  0.122E-01
   6.745  0.475E-01  0.237E-01  0.237E-01
   6.770  0.700E-01  0.350E-01  0.350E-01
   6.795  0.563E-01  0.281E-01  0.281E-01
   6.820  0.354E-01  0.177E-01  0.177E-01
   6.845  0.825E-02  0.413E-02  0.413E-02
   6.870  0.165E-01  0.823E-02  0.823E-02
   6.895  0.435E-01  0.218E-01  0.218E-01
   6.920  0.613E-01  0.306E-01  0.306E-01
   6.945  0.635E-01  0.317E-01  0.317E-01
   6.970  0.314E-01  0.157E-01  0.157E-01
   6.995  0.258E-01  0.129E-01  0.129E-01
   7.020  0.229E-01  0.114E-01  0.114E-01
   7.045  0.106E-01  0.529E-02  0.529E-02
   7.070  0.265E-01  0.132E-01  0.132E-01
   7.095  0.895E-01  0.448E-01  0.448E-01
   7.120  0.875E-01  0.438E-01  0.438E-01
   7.145  0.486E-01  0.243E-01  0.243E-01
   7.170  0.818E-01  0.409E-01  0.409E-01
   7.195  0.615E-01  0.308E-01  0.308E-01
   7.220  0.695E-01  0.347E-01  0.347E-01
   7.245  0.635E-01  0.318E-01  0.318E-01
   7.270  0.116E+00  0.578E-01  0.578E-01
   7.295  0.170E+00  0.852E-01  0.852E-01
   7.320  0.613E-01  0.306E-01  0.306E-01
   7.345  0.143E-01  0.713E-02  0.713E-02
   7.370  0.492E-01  0.246E-01  0.246E-01
   7.395  0.104E+00  0.518E-01  0.518E-01
   7.420  0.124E+00  0.621E-01  0.621E-01
   7.445  0.924E-01  0.462E-01  0.462E-01
   7.470  0.447E-01  0.223E-01  0.223E-01
   7.495  0.907E-02  0.454E-02  0.454E-02
   7.520  0.381E-01  0.191E-01  0.191E-01
   7.545  0.563E-01  0.282E-01  0.282E-01
   7.570  0.700E-01  0.350E-01  0.350E-01
   7.595  0.104E+00  0.520E-01  0.520E-01
   7.620  0.819E-01  0.409E-01  0.409E-01
   7.645  0.433E-01  0.216E-01  0.216E-01
   7.670  0.370E-01  0.185E-01  0.185E-01
   7.695  0.729E-01  0.365E-01  0.365E-01
   7.720  0.101E+00  0.505E-01  0.505E-01
   7.745  0.405E-01  0.202E-01  0.202E-01
   7.770  0.279E-01  0.140E-01  0.140E-01
   7.795  0.190E-01  0.949E-02  0.949E-02
   7.820  0.266E-01  0.133E-01  0.133E-01
   7.845  0.396E-01  0.198E-01  0.198E-01
   7.870  0.209E-01  0.104E-01  0.104E-01
   7.895  0.137E-01  0.685E-02  0.685E-02
   7.920  0.933E-01  0.466E-01  0.466E-01
   7.945  0.149E+00  0.746E-01  0.746E-01
   7.970  0.406E-01  0.203E-01  0.203E-01
   7.995  0.638E-02  0.319E-02  0.319E-02
   8.020  0.430E-02  0.215E-02  0.215E-02
   8.045  0.155E-01  0.773E-02  0.773E-02
   8.070  0.202E-01  0.101E-01  0.101E-01
   8.095  0.339E-01  0.169E-01  0.169E-01
   8.120  0.131E-01  0.657E-02  0.657E-02
   8.145  0.703E-03  0.351E-03  0.351E-03
   8.170  0.509E-05  0.255E-05  0.255E-05
   8.195  0.500E-08  0.250E-08  0.250E-08
